Data from WindowProjectSample_Transmission__81__00081.txt Node

Date: Sat May 03 18:05:20 EDT 2025
User: jessi
Spectrometer: SR400872
Trigger mode: 0
Integration Time (sec): 5.000010E-1
Scans to average: 6
Electric dark correction enabled: true
Nonlinearity correction enabled: true
Boxcar width: 0
XAxis mode: Wavelengths
Number of Pixels in Spectrum: 3648
>>>>>Begin Spectral Data<<<<<
184.909	3383.69286
185.132	3929.69422
185.355	-4070.79937
185.578	4258.29987
185.801	-302.22052
186.024	-5194.63535
186.247	1309.2935
186.47	617.02334
186.693	-176.49263
186.916	3790.83279
187.139	3203.63829
187.362	-1905.15808
187.585	5584.42587
187.808	27805.28532
188.031	46.469
188.254	-4637.66171
188.476	888.42063
188.699	3506.84047
188.922	-232.49681
189.145	-7208.72639
189.368	-372.14095
189.591	-642.24496
189.813	-2836.31671
190.036	916.40198
190.259	-9640.82404
190.482	1301.32648
190.705	3837.31079
190.927	-1973.25136
191.15	-6228.85998
191.373	5884.79163
191.595	-1222.01542
191.818	2094.61582
192.041	-581.88156
192.263	1865.39421
192.486	-2778.01166
192.709	-22515.50292
192.931	1758.40969
193.154	-3854.82022
193.377	-2439.25803
193.599	4398.16847
193.822	1565.96562
194.044	5847.97849
194.267	842.71073
194.489	-138.9601
194.712	2463.32165
194.934	8668.64284
195.157	-23504.61405
195.379	2218.29522
195.602	1566.01278
195.824	1497.79956
196.047	49355.33322
196.269	3152.59887
196.492	-1956.56673
196.714	-1317.13415
196.936	1799.83784
197.159	-12747.74452
197.381	-426.07311
197.604	-4159.91277
197.826	-16141.10147
198.048	10261.23604
198.271	-8552.56957
198.493	4664.59681
198.715	3584.79083
198.938	-676.33938
199.16	-18258.01521
199.382	1136.02898
199.604	-1696.17823
199.827	-3590.96217
200.049	2190.89819
200.271	-6837.75239
200.493	-45634.02601
200.715	3912.14264
200.938	-3020.96424
201.16	-2642.01423
201.382	-1629.53255
201.604	-3141.28293
201.826	3413.23738
202.048	3701.81972
202.27	-1128.17861
202.492	-3513.92123
202.715	-1230.24296
202.937	-17477.21871
203.159	2594.65429
203.381	2215.20013
203.603	-2939.8896
203.825	-1043.01339
204.047	57635.4411
204.269	-1455.58417
204.491	-1183.74308
204.713	67395.81813
204.935	-3307.67941
205.156	-956.33623
205.378	-4575.60896
205.6	-1370.94208
205.822	2340.25858
206.044	-454.9541
206.266	6635.36292
206.488	839.06374
206.71	3434.95504
206.932	1638.00243
207.153	-1589.48089
207.375	-2567.95817
207.597	3848.31552
207.819	28316.86887
208.041	3970.90645
208.262	-1326.36839
208.484	-1179.09274
208.706	-1325.6499
208.927	2881.74695
209.149	4832.58299
209.371	-5331.09197
209.593	418.77517
209.814	-31191.36563
210.036	2349.43585
210.258	-822.09596
210.479	4358.21541
210.701	-3623.41617
210.922	-11663.03128
211.144	-888.48952
211.366	5111.09173
211.587	-2068.4086
211.809	-4828.63917
212.03	-889.7609
212.252	-557.57187
212.473	3674.70825
212.695	-735.48384
212.916	-871.78766
213.138	552.11984
213.359	-1496.86469
213.581	11776.58662
213.802	-2469.15224
214.024	-2418.65811
214.245	-5902.46146
214.466	-279.89984
214.688	-3072.1015
214.909	-19926.40597
215.131	-4156.48016
215.352	-2183.70239
215.573	11682.33673
215.795	1682.40002
216.016	6939.73651
216.237	-517.03709
216.459	6339.08126
216.68	-3555.05987
216.901	-2622.02943
217.122	-1850.74197
217.344	-7078.70384
217.565	-2764.75815
217.786	2246.39306
218.007	1565.29908
218.228	-518.43795
218.45	-4235.51202
218.671	1433.08038
218.892	3858.43559
219.113	1594.95215
219.334	355.22765
219.555	-6899.19462
219.776	12627.16375
219.997	3914.63784
220.219	1993.71837
220.44	1099.9384
220.661	1122.90845
220.882	-2934.34039
221.103	-1127.85656
221.324	2472.61847
221.545	3091.36062
221.766	-3524.88501
221.987	-486.14802
222.208	-9178.45522
222.429	174438.47191
222.65	-320.04713
222.87	-10355.70738
223.091	2846.02996
223.312	-1284.38364
223.533	2536.77622
223.754	2090.38895
223.975	2797.97845
224.196	-5963.29763
224.417	-2723.06304
224.637	8915.63358
224.858	981.305
225.079	1234.61192
225.3	1187.49458
225.521	4801.71631
225.741	958.77956
225.962	1191.93344
226.183	-636.78143
226.404	1486.42969
226.624	1103.52423
226.845	1664.26808
227.066	872.09701
227.286	565.87284
227.507	220.79395
227.728	184.07684
227.948	288.20799
228.169	89.40133
228.389	90.06697
228.61	48.23803
228.831	62.09777
229.051	9.16813
229.272	37.25689
229.492	48.53507
229.713	16.72554
229.933	36.92252
230.154	32.89449
230.374	55.34221
230.595	38.08275
230.815	25.69916
231.036	41.14603
231.256	-7.5271
231.477	75.09232
231.697	43.73921
231.917	50.91305
232.138	61.00127
232.358	135.43831
232.579	120.39237
232.799	18.00353
233.019	113.67908
233.24	141.44678
233.46	43.02296
233.68	75.47961
233.901	57.86141
234.121	30.43723
234.341	8.22842
234.561	-4.16266
234.782	47.67118
235.002	86.71203
235.222	-0.93332
235.442	69.2375
235.662	35.7855
235.883	74.42095
236.103	62.78419
236.323	49.14236
236.543	36.50773
236.763	45.87555
236.983	49.69206
237.203	53.17062
237.423	78.21196
237.643	104.87988
237.864	89.51324
238.084	27.88827
238.304	36.71857
238.524	62.57094
238.744	46.63215
238.964	75.44956
239.184	71.13168
239.404	75.78825
239.624	40.58465
239.843	68.59106
240.063	38.86306
240.283	25.39908
240.503	25.99211
240.723	27.76983
240.943	12.96725
241.163	18.48389
241.383	14.40429
241.603	8.58589
241.822	9.55974
242.042	6.9674
242.262	8.77292
242.482	9.64935
242.702	11.62555
242.921	4.2467
243.141	7.84078
243.361	6.41457
243.581	10.47531
243.8	9.24643
244.02	5.78615
244.24	11.37422
244.459	10.28397
244.679	20.86588
244.899	13.46166
245.118	14.31537
245.338	13.50272
245.558	16.00991
245.777	10.53213
245.997	10.66279
246.216	11.25073
246.436	5.7886
246.655	4.63017
246.875	3.14333
247.094	6.13023
247.314	2.31142
247.533	3.86857
247.753	4.75256
247.972	3.50352
248.192	1.46432
248.411	2.37208
248.631	4.40704
248.85	5.1151
249.07	3.57637
249.289	7.21111
249.508	5.19463
249.728	8.04481
249.947	8.52287
250.166	9.18404
250.386	5.95644
250.605	8.57648
250.824	11.27013
251.044	9.94008
251.263	27.6904
251.482	14.41849
251.701	13.79346
251.921	0.35792
252.14	4.18332
252.359	4.88234
252.578	10.99067
252.798	3.85389
253.017	9.76056
253.236	5.36385
253.455	6.6041
253.674	13.35047
253.893	5.82057
254.112	8.22854
254.331	13.40835
254.551	10.54953
254.77	5.64244
254.989	16.01726
255.208	13.04058
255.427	18.00683
255.646	14.36927
255.865	25.02223
256.084	9.72247
256.303	11.7901
256.522	14.53508
256.741	4.09183
256.96	4.91581
257.179	9.38309
257.397	11.57854
257.616	6.566
257.835	7.25079
258.054	16.82321
258.273	10.18928
258.492	12.50688
258.711	7.53691
258.93	3.51363
259.148	4.51257
259.367	4.69481
259.586	5.86218
259.805	2.7205
260.023	5.28683
260.242	4.31902
260.461	2.9568
260.68	1.70417
260.898	4.79638
261.117	1.65172
261.336	1.2086
261.554	4.22265
261.773	4.05802
261.992	0.95292
262.21	3.99367
262.429	5.28392
262.648	8.51772
262.866	9.61564
263.085	6.24239
263.303	5.56025
263.522	9.98366
263.74	10.60982
263.959	16.36096
264.178	8.77154
264.396	7.91443
264.615	5.45954
264.833	12.61109
265.051	11.95743
265.27	11.48497
265.488	11.78115
265.707	8.20657
265.925	12.27599
266.144	5.72517
266.362	6.92623
266.58	6.97249
266.799	5.33529
267.017	6.96899
267.235	5.99541
267.454	3.95238
267.672	2.40886
267.89	5.23581
268.109	5.46201
268.327	4.52924
268.545	1.55566
268.763	4.39393
268.982	1.68771
269.2	5.53683
269.418	3.26398
269.636	2.31405
269.854	5.14814
270.073	3.84655
270.291	1.89169
270.509	2.63059
270.727	4.80894
270.945	7.97863
271.163	8.0017
271.381	2.21481
271.599	3.32469
271.817	5.99779
272.036	2.14407
272.254	3.79376
272.472	2.65987
272.69	3.01211
272.908	2.69687
273.126	4.64012
273.344	5.91267
273.562	2.52257
273.779	3.16129
273.997	4.0279
274.215	4.64659
274.433	3.41906
274.651	5.03391
274.869	5.49961
275.087	3.27623
275.305	4.97788
275.523	2.93794
275.74	3.76159
275.958	6.2692
276.176	8.95817
276.394	2.59865
276.612	3.66155
276.829	3.6901
277.047	2.95843
277.265	3.827
277.483	4.08836
277.7	5.06809
277.918	3.86881
278.136	7.32921
278.353	3.51491
278.571	1.59266
278.789	6.00432
279.006	1.1606
279.224	3.08978
279.442	5.61697
279.659	4.22611
279.877	3.10494
280.094	6.364
280.312	1.17815
280.529	3.9398
280.747	1.10155
280.964	3.01837
281.182	6.52008
281.399	3.36473
281.617	4.15614
281.834	3.05804
282.052	2.30587
282.269	3.5485
282.487	2.94577
282.704	2.17396
282.921	2.6699
283.139	3.80779
283.356	4.77545
283.574	4.10513
283.791	2.10189
284.008	5.78007
284.226	3.19952
284.443	3.75255
284.66	4.75394
284.877	3.76897
285.095	2.69527
285.312	1.77202
285.529	1.11037
285.746	0.88597
285.964	2.1994
286.181	1.52585
286.398	2.29919
286.615	2.853
286.832	2.76354
287.05	0.90747
287.267	2.07211
287.484	2.12834
287.701	3.24385
287.918	2.8662
288.135	3.10299
288.352	1.43055
288.569	1.55598
288.786	2.75679
289.003	2.17778
289.22	3.47797
289.437	2.05652
289.654	3.30926
289.871	3.49234
290.088	3.35311
290.305	2.68444
290.522	2.06127
290.739	2.40913
290.956	3.64354
291.173	4.25889
291.39	3.86876
291.607	2.74974
291.824	2.10908
292.04	1.30591
292.257	3.24725
292.474	3.69051
292.691	2.46361
292.908	1.16789
293.125	2.08203
293.341	1.36289
293.558	5.69694
293.775	2.40941
293.992	2.29042
294.208	0.99677
294.425	1.54426
294.642	2.094
294.858	3.04356
295.075	1.0047
295.292	2.36014
295.508	2.67255
295.725	4.02598
295.942	1.76479
296.158	1.3785
296.375	2.34962
296.591	1.98117
296.808	2.02953
297.024	2.11462
297.241	2.46389
297.458	2.5836
297.674	0.24525
297.891	1.99988
298.107	1.56086
298.323	1.09693
298.54	3.0685
298.756	1.3911
298.973	0.70804
299.189	3.06124
299.406	1.33432
299.622	3.4968
299.838	3.10313
300.055	3.16083
300.271	0.92738
300.487	1.05446
300.704	1.56146
300.92	1.03867
301.136	4.32432
301.353	3.07392
301.569	2.29856
301.785	2.6533
302.001	3.16979
302.218	2.63001
302.434	2.46624
302.65	0.60567
302.866	1.85676
303.083	4.25289
303.299	3.85748
303.515	2.07624
303.731	2.29236
303.947	0.81446
304.163	1.51976
304.379	2.47865
304.595	2.71461
304.812	1.47119
305.028	1.41356
305.244	1.95448
305.46	2.95585
305.676	3.21849
305.892	3.53737
306.108	2.3101
306.324	1.90068
306.54	4.14947
306.756	3.02899
306.972	2.92578
307.187	2.03638
307.403	3.95464
307.619	1.44453
307.835	3.19653
308.051	3.82022
308.267	0.86393
308.483	3.25569
308.699	2.8912
308.914	2.30086
309.13	2.08182
309.346	0.62235
309.562	1.15134
309.778	0.71183
309.993	2.84819
310.209	2.09454
310.425	0.86609
310.641	1.79018
310.856	1.09276
311.072	1.02476
311.288	1.89261
311.503	2.22024
311.719	0.56872
311.935	0.35235
312.15	2.3986
312.366	2.0017
312.581	2.6686
312.797	2.23021
313.013	2.74768
313.228	1.63185
313.444	2.30354
313.659	1.47135
313.875	2.55287
314.09	2.22479
314.306	3.31146
314.521	3.04388
314.737	2.70779
314.952	2.61411
315.168	1.96765
315.383	2.85087
315.599	1.89784
315.814	2.05916
316.029	2.76018
316.245	0.83009
316.46	0.83032
316.675	3.54641
316.891	4.17109
317.106	5.09736
317.321	2.90164
317.537	2.5505
317.752	2.93375
317.967	3.05668
318.183	1.49281
318.398	2.13323
318.613	3.18596
318.828	3.75913
319.043	2.96081
319.259	1.89289
319.474	2.68707
319.689	3.43338
319.904	0.5957
320.119	3.07561
320.334	2.56665
320.549	2.05381
320.765	3.47599
320.98	2.46756
321.195	3.35637
321.41	1.92803
321.625	2.8668
321.84	4.03872
322.055	4.20608
322.27	1.74413
322.485	1.16905
322.7	2.37524
322.915	3.64741
323.13	1.37277
323.345	3.63207
323.56	3.08959
323.775	3.1543
323.989	2.88891
324.204	2.56714
324.419	3.01958
324.634	1.01547
324.849	2.25649
325.064	4.54364
325.279	3.30257
325.493	2.94644
325.708	3.33594
325.923	1.41034
326.138	1.32284
326.352	3.92407
326.567	3.04647
326.782	1.9121
326.997	1.30066
327.211	2.59867
327.426	2.56957
327.641	1.77062
327.855	0.71788
328.07	2.76022
328.285	4.09549
328.499	2.01527
328.714	2.83852
328.928	3.23345
329.143	2.33955
329.358	3.15913
329.572	3.21874
329.787	3.63247
330.001	4.78143
330.216	1.00113
330.43	3.95872
330.645	4.08641
330.859	3.26833
331.074	1.61834
331.288	2.41538
331.503	3.79014
331.717	1.11949
331.931	2.29267
332.146	2.12285
332.36	4.15567
332.575	2.81761
332.789	2.50358
333.003	2.20876
333.218	2.7011
333.432	2.09967
333.646	3.0069
333.86	3.5878
334.075	4.13594
334.289	1.89051
334.503	1.63774
334.717	2.96936
334.932	2.88046
335.146	3.77405
335.36	2.02021
335.574	2.88198
335.788	2.81869
336.003	3.66929
336.217	2.89701
336.431	2.90037
336.645	1.5824
336.859	1.29316
337.073	1.85126
337.287	2.59492
337.501	1.31903
337.715	2.49566
337.929	2.95131
338.143	1.2017
338.357	2.39866
338.571	1.43915
338.785	2.63184
338.999	1.78437
339.213	1.96686
339.427	0.88929
339.641	3.28929
339.855	2.09409
340.069	1.75549
340.283	3.20162
340.497	3.9192
340.711	2.45874
340.924	1.79151
341.138	1.21697
341.352	1.09543
341.566	2.59125
341.78	0.72353
341.993	1.62427
342.207	1.43039
342.421	2.33829
342.635	2.3712
342.848	1.84544
343.062	0.1027
343.276	1.65607
343.49	4.26526
343.703	1.71015
343.917	2.97746
344.131	3.05256
344.344	1.67986
344.558	1.74966
344.771	1.49184
344.985	3.5247
345.199	3.7465
345.412	2.39815
345.626	2.4506
345.839	0.73439
346.053	1.11393
346.266	1.13474
346.48	2.87966
346.693	2.32658
346.907	2.62404
347.12	1.45776
347.334	2.31315
347.547	2.583
347.76	1.95529
347.974	3.28819
348.187	2.39314
348.401	1.85361
348.614	1.68697
348.827	1.80182
349.041	2.7908
349.254	0.7011
349.467	1.98855
349.681	0.84105
349.894	1.4961
350.107	3.28677
350.32	3.44925
350.534	0.52485
350.747	1.87649
350.96	1.19977
351.173	1.53586
351.386	1.89211
351.6	1.6663
351.813	1.40307
352.026	2.31462
352.239	0.96939
352.452	1.48215
352.665	2.68533
352.878	1.65728
353.092	4.25388
353.305	2.58716
353.518	2.41637
353.731	1.27247
353.944	3.34036
354.157	1.36311
354.37	1.17413
354.583	0.94172
354.796	0.80694
355.009	2.92373
355.222	1.99919
355.435	2.15951
355.647	3.04139
355.86	1.06118
356.073	1.80681
356.286	1.54657
356.499	2.58328
356.712	2.06828
356.925	2.21973
357.138	2.67942
357.35	1.07706
357.563	1.56026
357.776	2.13529
357.989	1.42786
358.201	2.47763
358.414	1.9204
358.627	2.91146
358.84	1.69305
359.052	1.13072
359.265	0.86178
359.478	2.74914
359.69	-0.46899
359.903	2.32501
360.116	2.47189
360.328	0.50884
360.541	2.48516
360.753	0.97153
360.966	1.23568
361.179	1.27224
361.391	1.29544
361.604	0.84332
361.816	1.22898
362.029	1.02496
362.241	0.96491
362.454	1.0922
362.666	0.867
362.879	1.62446
363.091	1.30744
363.304	0.99661
363.516	1.59435
363.728	0.67784
363.941	1.99453
364.153	0.91346
364.366	-0.0766
364.578	0.85563
364.79	2.06771
365.003	1.43434
365.215	1.26953
365.427	2.09291
365.639	2.67069
365.852	1.92316
366.064	3.34211
366.276	1.01186
366.488	2.13398
366.701	1.38609
366.913	1.45336
367.125	1.58965
367.337	1.28592
367.549	1.30575
367.762	1.70548
367.974	1.72486
368.186	0.87907
368.398	2.43197
368.61	2.16309
368.822	2.18461
369.034	1.70318
369.246	2.32189
369.458	3.39473
369.67	0.88858
369.882	3.21632
370.094	0.08079
370.306	2.93983
370.518	1.36422
370.73	0.75666
370.942	1.1391
371.154	1.23131
371.366	1.02472
371.578	1.74373
371.79	0.83476
372.002	2.62102
372.214	2.8895
372.425	1.8011
372.637	2.6314
372.849	1.49249
373.061	-0.13387
373.273	1.85667
373.484	2.07945
373.696	2.20637
373.908	-0.04738
374.12	2.37259
374.331	2.10195
374.543	1.00485
374.755	0.78186
374.967	1.79921
375.178	2.28029
375.39	1.54704
375.602	1.74492
375.813	0.78556
376.025	0.4684
376.236	1.5502
376.448	1.63153
376.66	1.14164
376.871	1.18117
377.083	2.3384
377.294	2.25765
377.506	1.1698
377.717	2.40384
377.929	1.60992
378.14	0.70417
378.352	2.0017
378.563	1.83019
378.775	2.56103
378.986	1.01144
379.197	1.54594
379.409	1.25027
379.62	2.20878
379.832	1.84623
380.043	1.27032
380.254	1.56719
380.466	0.56948
380.677	3.67008
380.888	3.40522
381.1	3.44729
381.311	3.23434
381.522	1.38745
381.733	3.77132
381.945	1.2167
382.156	1.88737
382.367	1.24133
382.578	3.67277
382.789	3.58307
383.001	1.34089
383.212	2.23432
383.423	2.68202
383.634	2.35365
383.845	1.72173
384.056	1.20323
384.267	1.29917
384.478	1.30875
384.69	0.609
384.901	1.85936
385.112	1.74926
385.323	2.60878
385.534	1.92071
385.745	1.8019
385.956	1.88164
386.167	0.69599
386.378	1.72638
386.588	0.46905
386.799	0.86101
387.01	0.14862
387.221	2.0649
387.432	1.28263
387.643	2.91484
387.854	1.45805
388.065	1.22809
388.275	1.28256
388.486	1.20713
388.697	1.3808
388.908	1.15242
389.119	2.41487
389.329	2.72599
389.54	1.40644
389.751	1.85541
389.962	2.36412
390.172	1.70149
390.383	1.02268
390.594	0.98328
390.804	0.94831
391.015	0.88862
391.226	1.40942
391.436	1.7316
391.647	1.74931
391.858	1.6852
392.068	0.21721
392.279	0.45053
392.489	1.34794
392.7	2.17789
392.91	0.69751
393.121	0.82881
393.331	1.73968
393.542	2.23699
393.752	1.61833
393.963	1.32939
394.173	1.30865
394.384	1.65976
394.594	1.28221
394.804	0.55184
395.015	1.42657
395.225	1.69852
395.436	0.53902
395.646	1.90974
395.856	0.55667
396.067	0.48972
396.277	2.13894
396.487	1.52623
396.697	1.10128
396.908	2.07989
397.118	1.94541
397.328	1.55594
397.538	2.09899
397.749	0.78047
397.959	1.96763
398.169	1.9661
398.379	0.5759
398.589	1.90324
398.8	1.39732
399.01	1.03808
399.22	1.2738
399.43	3.09477
399.64	1.01002
399.85	1.86864
400.06	1.09847
400.27	0.90653
400.48	1.51246
400.69	2.5677
400.9	1.1155
401.11	0.98605
401.32	2.10035
401.53	1.06914
401.74	2.63415
401.95	2.01491
402.16	0.45935
402.37	1.54657
402.58	0.87051
402.79	1.92993
403	2.02737
403.209	0.9843
403.419	1.90713
403.629	0.99523
403.839	1.80447
404.049	1.94034
404.258	0.67382
404.468	0.64068
404.678	1.72577
404.888	1.78891
405.097	0.57478
405.307	1.29436
405.517	1.6605
405.727	1.3766
405.936	1.10019
406.146	1.41298
406.356	2.30382
406.565	1.39947
406.775	0.78377
406.984	0.77449
407.194	2.60416
407.404	1.36019
407.613	1.48078
407.823	2.10746
408.032	2.05538
408.242	2.12304
408.451	0.97231
408.661	1.21587
408.87	2.59304
409.08	1.06989
409.289	1.65047
409.499	1.25461
409.708	1.67042
409.918	0.03275
410.127	1.30826
410.336	2.33951
410.546	1.79913
410.755	1.05425
410.964	1.09622
411.174	0.68299
411.383	1.7979
411.592	1.69464
411.802	0.543
412.011	2.26027
412.22	1.48481
412.429	2.48784
412.639	2.15367
412.848	2.50643
413.057	2.52552
413.266	2.20586
413.475	1.52093
413.685	2.05209
413.894	1.95116
414.103	2.21222
414.312	1.91966
414.521	1.4447
414.73	1.67784
414.939	2.87118
415.148	1.75471
415.357	1.67823
415.566	1.15154
415.776	1.12252
415.985	1.00085
416.194	1.84098
416.403	2.39394
416.611	0.42007
416.82	0.86461
417.029	1.26206
417.238	0.8217
417.447	0.54707
417.656	0.76408
417.865	0.56905
418.074	0.8077
418.283	1.07258
418.492	1.53421
418.7	1.54732
418.909	2.23426
419.118	1.24011
419.327	1.48695
419.536	1.25582
419.744	0.63772
419.953	1.80267
420.162	1.85251
420.371	0.5516
420.579	0.46401
420.788	1.6523
420.997	1.59915
421.205	1.51046
421.414	1.19229
421.623	1.10875
421.831	0.78563
422.04	1.55013
422.249	0.68184
422.457	1.35155
422.666	0.76289
422.874	1.87524
423.083	1.73618
423.291	1.64931
423.5	1.25615
423.708	1.50843
423.917	1.87228
424.125	1.2296
424.334	0.81505
424.542	2.92692
424.751	1.97422
424.959	1.75907
425.167	2.22303
425.376	2.09482
425.584	1.38908
425.793	1.69434
426.001	0.84137
426.209	1.86783
426.418	0.8677
426.626	1.04547
426.834	0.69742
427.042	1.24339
427.251	0.82149
427.459	1.7019
427.667	1.32686
427.875	0.62512
428.084	0.92809
428.292	2.06223
428.5	1.53094
428.708	0.84809
428.916	0.73632
429.124	1.30404
429.333	1.06478
429.541	1.00172
429.749	1.32991
429.957	1.22738
430.165	2.62852
430.373	0.55231
430.581	1.31815
430.789	1.93733
430.997	0.98283
431.205	0.87875
431.413	1.15581
431.621	0.98359
431.829	1.63189
432.037	0.83819
432.245	1.31109
432.453	1.37753
432.661	0.95656
432.869	2.38397
433.076	0.593
433.284	1.11457
433.492	1.66963
433.7	1.95028
433.908	0.86272
434.116	1.35736
434.323	1.39379
434.531	1.18508
434.739	1.43272
434.947	1.66299
435.154	1.55237
435.362	1.33312
435.57	1.15743
435.778	0.81871
435.985	1.34457
436.193	1.01872
436.401	1.87955
436.608	1.31244
436.816	0.94429
437.023	2.1789
437.231	2.18395
437.439	1.38614
437.646	1.48063
437.854	1.55645
438.061	1.72558
438.269	1.1779
438.476	1.66979
438.684	1.39178
438.891	1.02255
439.099	0.81032
439.306	0.45066
439.514	0.63884
439.721	1.51955
439.929	0.89986
440.136	1.77392
440.343	1.63192
440.551	1.11464
440.758	2.98245
440.965	1.86621
441.173	1.50988
441.38	0.97631
441.587	1.60577
441.795	1.12373
442.002	1.4885
442.209	1.58923
442.416	1.85187
442.624	1.60503
442.831	1.61184
443.038	0.90768
443.245	0.81673
443.452	1.05777
443.66	1.80225
443.867	0.92606
444.074	1.03715
444.281	0.91233
444.488	1.189
444.695	1.26712
444.902	1.1356
445.109	1.75357
445.316	1.24559
445.523	1.17545
445.73	0.77148
445.937	1.45428
446.144	1.87865
446.351	1.90492
446.558	1.01501
446.765	2.19221
446.972	2.23828
447.179	1.48896
447.386	2.47901
447.593	1.29308
447.8	2.31595
448.007	1.30938
448.214	1.42004
448.42	1.13095
448.627	2.07211
448.834	1.22854
449.041	1.13038
449.248	1.25424
449.454	1.83007
449.661	2.4018
449.868	1.24851
450.075	1.00303
450.281	0.37784
450.488	0.62129
450.695	0.98114
450.901	0.84088
451.108	1.07537
451.315	1.93822
451.521	1.28222
451.728	1.87907
451.935	0.94068
452.141	1.18992
452.348	1.4834
452.554	1.21078
452.761	1.07584
452.967	2.31866
453.174	1.44643
453.38	1.47155
453.587	0.68048
453.793	1.47177
454	1.96382
454.206	2.62691
454.413	2.2286
454.619	1.72212
454.825	0.99899
455.032	1.8166
455.238	2.08648
455.445	0.79257
455.651	1.54089
455.857	0.50371
456.064	1.18941
456.27	1.20345
456.476	1.37572
456.682	0.7117
456.889	1.66927
457.095	1.84562
457.301	2.88345
457.507	1.53166
457.714	1.54062
457.92	1.35451
458.126	0.93763
458.332	1.16284
458.538	1.06833
458.744	1.04603
458.951	1.19369
459.157	2.51209
459.363	1.6094
459.569	1.36042
459.775	2.25663
459.981	1.2019
460.187	1.64838
460.393	2.10409
460.599	2.73559
460.805	1.75914
461.011	1.68749
461.217	2.29832
461.423	2.18995
461.629	1.36764
461.835	1.85299
462.041	1.29942
462.247	2.39257
462.453	1.46758
462.658	1.55583
462.864	2.04446
463.07	1.79953
463.276	1.72601
463.482	1.79258
463.688	2.3057
463.893	1.3991
464.099	1.38474
464.305	2.56813
464.511	1.3422
464.716	1.63135
464.922	2.04708
465.128	1.143
465.333	2.61541
465.539	1.96869
465.745	1.37085
465.95	1.93086
466.156	3.22494
466.362	2.39161
466.567	1.61872
466.773	1.4702
466.978	2.69842
467.184	1.08217
467.389	0.50759
467.595	2.03172
467.8	1.11275
468.006	2.44525
468.211	2.35728
468.417	1.16581
468.622	1.87068
468.828	2.31256
469.033	1.85577
469.239	3.54553
469.444	1.40497
469.649	2.4265
469.855	1.59138
470.06	1.80261
470.266	1.05657
470.471	2.17572
470.676	2.1173
470.881	0.83999
471.087	2.43274
471.292	2.91479
471.497	0.96201
471.703	1.53039
471.908	1.52792
472.113	1.81954
472.318	2.37601
472.523	1.15269
472.729	2.05254
472.934	2.20544
473.139	1.519
473.344	2.27049
473.549	2.50459
473.754	1.37096
473.959	3.22404
474.164	1.39523
474.369	1.6592
474.575	2.24296
474.78	1.96138
474.985	1.58352
475.19	0.79555
475.395	1.33216
475.6	1.71397
475.804	2.64336
476.009	1.7115
476.214	1.7796
476.419	1.44607
476.624	0.79761
476.829	1.22908
477.034	1.87914
477.239	1.30653
477.444	1.76828
477.648	2.06753
477.853	2.11896
478.058	1.50724
478.263	1.33796
478.468	1.04786
478.672	1.12378
478.877	2.36794
479.082	2.73279
479.287	1.86657
479.491	1.75478
479.696	0.91567
479.901	2.19769
480.105	2.03512
480.31	1.33297
480.515	1.5503
480.719	2.89721
480.924	1.27357
481.128	0.99565
481.333	1.78404
481.538	1.94802
481.742	1.51099
481.947	2.19967
482.151	2.34909
482.356	1.89355
482.56	2.63691
482.765	2.66513
482.969	3.59272
483.174	3.96584
483.378	5.05751
483.582	4.7385
483.787	5.47176
483.991	5.18248
484.196	5.54051
484.4	5.23769
484.604	6.0258
484.809	4.73256
485.013	4.9813
485.217	4.39722
485.422	3.83377
485.626	3.27715
485.83	3.18863
486.034	2.98232
486.239	3.07643
486.443	3.01247
486.647	2.78024
486.851	3.56715
487.055	4.1823
487.26	3.39323
487.464	3.93779
487.668	3.0952
487.872	3.11106
488.076	3.93202
488.28	3.56698
488.484	3.14079
488.688	3.10967
488.892	3.46475
489.096	3.30486
489.3	2.90855
489.504	2.84527
489.708	3.02659
489.912	2.96111
490.116	2.85844
490.32	2.14447
490.524	2.71611
490.728	2.8793
490.932	2.73465
491.136	2.56889
491.34	3.63831
491.544	3.71655
491.748	3.21585
491.951	3.32241
492.155	3.11081
492.359	3.41291
492.563	2.43687
492.767	2.63911
492.97	2.46767
493.174	2.11686
493.378	2.18951
493.582	1.55122
493.785	1.86237
493.989	1.98436
494.193	1.90737
494.396	1.55832
494.6	2.12914
494.804	1.64825
495.007	1.38015
495.211	1.56095
495.414	1.58575
495.618	1.83915
495.822	2.55135
496.025	1.77869
496.229	2.37636
496.432	1.48675
496.636	1.91357
496.839	1.82279
497.043	3.00734
497.246	2.10886
497.45	1.68614
497.653	1.87964
497.856	2.07824
498.06	1.24752
498.263	1.68217
498.467	1.65093
498.67	2.46312
498.873	1.97978
499.077	1.66234
499.28	1.65616
499.483	2.00017
499.686	2.2434
499.89	2.01391
500.093	2.32528
500.296	1.38605
500.499	2.70551
500.703	1.90169
500.906	1.93015
501.109	2.94513
501.312	1.99929
501.515	1.69985
501.719	2.14831
501.922	2.66329
502.125	2.10999
502.328	1.88127
502.531	1.20556
502.734	1.98878
502.937	0.89348
503.14	2.10044
503.343	1.31438
503.546	1.66792
503.749	1.50518
503.952	2.19592
504.155	1.44925
504.358	2.22748
504.561	2.02321
504.764	1.25191
504.967	1.84526
505.17	1.80849
505.373	2.84004
505.576	1.87296
505.778	2.33489
505.981	1.61403
506.184	2.64457
506.387	1.16961
506.59	3.07122
506.793	2.56976
506.995	2.17943
507.198	0.84611
507.401	2.05878
507.604	2.32096
507.806	1.35078
508.009	1.5117
508.212	2.2482
508.414	1.55491
508.617	1.43153
508.82	1.7978
509.022	2.62868
509.225	2.1913
509.427	0.96217
509.63	2.48661
509.833	1.97035
510.035	1.67704
510.238	0.97236
510.44	2.62732
510.643	0.78346
510.845	3.14452
511.048	2.20381
511.25	1.64979
511.453	1.78922
511.655	2.07436
511.858	1.70437
512.06	2.4157
512.262	1.88718
512.465	2.37013
512.667	1.63365
512.869	1.31778
513.072	2.19004
513.274	2.45362
513.476	2.30254
513.679	2.53232
513.881	1.29806
514.083	2.85897
514.286	1.64455
514.488	1.72046
514.69	1.44731
514.892	1.43722
515.094	2.22084
515.297	1.80593
515.499	2.09328
515.701	1.56981
515.903	2.89875
516.105	2.87183
516.307	2.44907
516.509	0.92994
516.711	1.38537
516.913	1.99035
517.116	1.82426
517.318	1.66929
517.52	2.51772
517.722	2.36229
517.924	1.4407
518.126	2.34061
518.328	1.69243
518.529	2.46018
518.731	3.25152
518.933	1.71144
519.135	2.12233
519.337	2.89189
519.539	2.36518
519.741	1.07836
519.943	1.81401
520.145	1.74606
520.346	2.32305
520.548	1.74784
520.75	2.05694
520.952	1.77492
521.153	1.99929
521.355	2.33061
521.557	1.50849
521.759	2.09099
521.96	1.93307
522.162	1.4606
522.364	2.68365
522.565	1.70784
522.767	2.43553
522.969	2.72863
523.17	2.23652
523.372	2.18879
523.573	1.60826
523.775	1.98354
523.977	1.39726
524.178	2.92315
524.38	1.53969
524.581	2.47316
524.783	1.72301
524.984	2.49329
525.186	2.12219
525.387	2.56448
525.589	2.24438
525.79	2.04501
525.991	1.79468
526.193	2.60861
526.394	1.479
526.596	2.6342
526.797	2.61254
526.998	2.28624
527.2	1.74856
527.401	3.38242
527.602	3.16678
527.803	4.50561
528.005	4.23827
528.206	4.60318
528.407	4.93732
528.608	4.47457
528.81	4.79624
529.011	4.06599
529.212	5.23942
529.413	4.41968
529.614	4.2628
529.815	4.5096
530.017	4.04666
530.218	3.51134
530.419	2.79317
530.62	3.00833
530.821	2.94694
531.022	1.9176
531.223	2.94178
531.424	2.96869
531.625	2.80818
531.826	2.61024
532.027	2.80681
532.228	3.7039
532.429	3.00988
532.63	3.00965
532.831	3.25454
533.032	3.06244
533.233	3.79249
533.433	3.49709
533.634	3.89654
533.835	3.18614
534.036	2.6979
534.237	3.00466
534.438	2.62195
534.638	2.11986
534.839	2.21986
535.04	2.61784
535.241	2.0079
535.441	3.21689
535.642	2.63769
535.843	1.64285
536.043	1.88164
536.244	2.01004
536.445	2.05182
536.645	3.08449
536.846	2.51585
537.047	3.37927
537.247	1.8337
537.448	2.23348
537.648	2.37967
537.849	2.17621
538.049	2.02986
538.25	2.48829
538.451	2.46693
538.651	1.764
538.851	2.39533
539.052	2.88051
539.252	2.66631
539.453	2.16713
539.653	2.26645
539.854	2.18665
540.054	2.47895
540.254	3.35999
540.455	3.49637
540.655	2.65949
540.855	3.31468
541.056	4.09033
541.256	3.32448
541.456	4.50877
541.657	3.54649
541.857	4.66029
542.057	2.97615
542.257	3.00504
542.458	3.86202
542.658	3.95029
542.858	2.57299
543.058	3.65425
543.258	3.07549
543.458	1.89155
543.659	1.71617
543.859	2.89798
544.059	2.82299
544.259	2.2862
544.459	2.68986
544.659	1.90389
544.859	2.45708
545.059	1.74802
545.259	2.52109
545.459	2.2149
545.659	2.73974
545.859	2.26273
546.059	2.33398
546.259	1.82393
546.459	1.38609
546.659	1.52629
546.859	2.6533
547.059	2.48047
547.258	2.45763
547.458	2.43971
547.658	1.58283
547.858	1.58159
548.058	2.39247
548.258	2.26296
548.457	1.58004
548.657	3.9138
548.857	2.15384
549.057	3.04237
549.256	2.86639
549.456	2.2519
549.656	1.12535
549.855	3.69768
550.055	2.34724
550.255	3.77681
550.454	2.95804
550.654	3.23554
550.853	3.55051
551.053	3.19828
551.253	2.76436
551.452	2.82207
551.652	1.72681
551.851	1.43675
552.051	2.30389
552.25	2.04361
552.45	1.89337
552.649	2.17651
552.849	1.86174
553.048	2.34339
553.248	2.55749
553.447	1.84686
553.646	3.08043
553.846	3.79899
554.045	3.25591
554.244	1.713
554.444	3.71636
554.643	2.03138
554.842	3.70547
555.042	4.17499
555.241	2.38285
555.44	1.90259
555.64	2.98385
555.839	3.83948
556.038	3.05372
556.237	2.16459
556.436	2.59449
556.636	3.09604
556.835	2.16426
557.034	3.62479
557.233	2.70348
557.432	1.90371
557.631	3.58162
557.83	2.50185
558.029	2.54264
558.228	2.32996
558.427	1.92509
558.626	2.95373
558.825	2.04036
559.024	2.9118
559.223	4.1278
559.422	2.63001
559.621	3.07917
559.82	1.05819
560.019	2.79387
560.218	2.52
560.417	0.36252
560.616	2.33772
560.815	5.08613
561.014	1.56861
561.212	3.48818
561.411	2.5505
561.61	1.40518
561.809	2.30716
562.008	3.84268
562.206	2.48438
562.405	3.08735
562.604	2.43088
562.803	2.7365
563.001	2.60861
563.2	1.59681
563.399	2.92685
563.597	1.72225
563.796	2.81141
563.995	1.58114
564.193	3.19333
564.392	2.28243
564.59	4.38534
564.789	1.11376
564.988	2.09328
565.186	2.51394
565.385	2.22676
565.583	2.2071
565.782	2.34704
565.98	2.13958
566.179	2.35187
566.377	1.40099
566.575	1.68934
566.774	3.21786
566.972	2.9161
567.171	3.82382
567.369	3.49906
567.567	2.47873
567.766	2.68192
567.964	0.93527
568.162	2.90176
568.361	3.4261
568.559	2.38
568.757	3.0824
568.956	2.80729
569.154	2.40029
569.352	3.22737
569.55	2.38808
569.748	2.43269
569.947	1.9668
570.145	2.07886
570.343	1.73925
570.541	3.39638
570.739	1.24638
570.937	2.44128
571.135	2.71444
571.333	3.77393
571.532	3.56317
571.73	2.69533
571.928	2.88836
572.126	2.81388
572.324	1.91981
572.522	3.37898
572.72	4.29803
572.918	2.51495
573.116	2.6953
573.313	2.45578
573.511	2.39671
573.709	2.17809
573.907	2.9817
574.105	2.1853
574.303	1.19894
574.501	1.3015
574.699	2.62764
574.896	2.63208
575.094	2.97292
575.292	1.50614
575.49	3.09563
575.688	2.41375
575.885	3.41335
576.083	4.03031
576.281	2.7871
576.478	2.02832
576.676	2.97231
576.874	1.70106
577.071	2.2763
577.269	4.77677
577.467	2.64531
577.664	2.88846
577.862	3.48747
578.059	2.03677
578.257	3.44078
578.455	2.5188
578.652	2.70784
578.85	1.0013
579.047	2.91079
579.245	2.73198
579.442	2.98601
579.64	2.85417
579.837	1.22836
580.034	4.95548
580.232	2.62682
580.429	1.77927
580.627	3.57098
580.824	4.05232
581.021	3.31108
581.219	2.74047
581.416	2.29045
581.613	4.0121
581.811	4.22536
582.008	2.18838
582.205	3.57406
582.402	3.27167
582.6	4.94999
582.797	3.37579
582.994	3.35567
583.191	3.61632
583.388	3.32334
583.586	3.68659
583.783	4.26177
583.98	2.46237
584.177	3.33855
584.374	0.09742
584.571	3.0936
584.768	3.15008
584.965	2.7516
585.162	3.67617
585.359	4.47202
585.556	2.93844
585.753	3.25149
585.95	1.83408
586.147	2.68282
586.344	3.59704
586.541	2.74764
586.738	1.72247
586.935	3.21049
587.132	2.34668
587.329	4.28177
587.526	3.17681
587.722	7.9395
587.919	1.60642
588.116	3.46562
588.313	4.39067
588.51	5.12762
588.706	2.66374
588.903	3.42571
589.1	3.942
589.297	5.85078
589.493	3.17296
589.69	3.51072
589.887	2.55486
590.083	2.03088
590.28	2.18002
590.477	3.7934
590.673	3.94794
590.87	4.19502
591.067	2.81666
591.263	3.51587
591.46	3.66863
591.656	2.972
591.853	4.4864
592.049	2.18277
592.246	2.4426
592.442	4.4269
592.639	4.21697
592.835	2.04516
593.032	3.62228
593.228	1.64605
593.425	1.44071
593.621	1.56419
593.817	2.9654
594.014	2.17266
594.21	3.02952
594.406	4.10997
594.603	3.31212
594.799	2.4495
594.995	0.56709
595.192	3.77
595.388	2.49558
595.584	2.29368
595.78	1.5461
595.977	5.10971
596.173	4.4444
596.369	2.55742
596.565	1.81391
596.761	1.45797
596.957	3.9187
597.154	1.83854
597.35	2.23685
597.546	1.90105
597.742	3.38443
597.938	2.77193
598.134	1.8721
598.33	2.96224
598.526	4.38543
598.722	3.71438
598.918	4.80392
599.114	4.03665
599.31	2.55267
599.506	3.55985
599.702	2.65084
599.898	3.66503
600.094	4.30735
600.29	3.91024
600.485	3.88332
600.681	3.24889
600.877	5.28951
601.073	3.28876
601.269	5.68414
601.465	4.53802
601.66	2.10778
601.856	1.46863
602.052	5.1671
602.248	2.57262
602.443	0.94627
602.639	1.60942
602.835	2.29204
603.03	1.96248
603.226	3.64739
603.422	1.85489
603.617	2.31506
603.813	2.3318
604.009	2.14061
604.204	3.90627
604.4	1.30205
604.595	3.41073
604.791	1.57586
604.986	2.87098
605.182	1.81916
605.377	2.13601
605.573	1.9999
605.768	2.92662
605.964	3.41494
606.159	3.69734
606.355	4.25636
606.55	2.58605
606.746	4.37579
606.941	3.02412
607.136	5.44214
607.332	6.5095
607.527	1.80588
607.722	3.48389
607.918	3.02269
608.113	2.29404
608.308	3.7745
608.503	3.47484
608.699	3.37877
608.894	3.53356
609.089	1.97214
609.284	3.01458
609.479	2.24237
609.675	3.31863
609.87	2.32619
610.065	3.30693
610.26	3.98804
610.455	3.762
610.65	2.84647
610.845	2.99823
611.04	3.76111
611.235	2.8706
611.43	2.68615
611.625	1.79022
611.82	4.83801
612.015	2.53161
612.21	5.14786
612.405	1.75986
612.6	5.82727
612.795	4.91973
612.99	4.57171
613.185	2.02753
613.38	2.66429
613.575	3.84808
613.77	7.00799
613.965	1.71969
614.159	2.32374
614.354	5.42213
614.549	5.12391
614.744	4.40372
614.938	2.51034
615.133	2.33862
615.328	5.31127
615.523	4.46262
615.717	7.19908
615.912	3.36742
616.107	3.85991
616.301	3.105
616.496	2.87395
616.691	6.15763
616.885	4.67899
617.08	6.99856
617.274	5.39175
617.469	6.79104
617.664	4.48085
617.858	3.04843
618.053	4.26211
618.247	3.50556
618.442	0.79137
618.636	5.63615
618.831	3.25107
619.025	3.4041
619.219	7.02132
619.414	-0.11431
619.608	4.1373
619.803	2.52081
619.997	6.5462
620.191	5.70451
620.386	4.37747
620.58	4.17811
620.774	1.98822
620.969	1.96078
621.163	4.19237
621.357	2.32657
621.551	3.42695
621.746	4.28799
621.94	3.99761
622.134	8.81071
622.328	6.89338
622.522	2.37017
622.716	5.23005
622.911	5.28449
623.105	4.83992
623.299	4.08941
623.493	8.62641
623.687	2.6702
623.881	3.73865
624.075	4.69811
624.269	5.21101
624.463	1.48356
624.657	1.64955
624.851	4.9303
625.045	5.17292
625.239	5.26684
625.433	3.0347
625.627	6.10078
625.821	2.75632
626.015	2.37557
626.209	3.62089
626.403	1.35143
626.596	4.0535
626.79	4.54679
626.984	1.88445
627.178	4.0978
627.372	4.14265
627.565	4.72009
627.759	1.69658
627.953	2.09773
628.147	4.67272
628.34	4.35806
628.534	6.0841
628.728	3.43975
628.921	5.12074
629.115	5.01616
629.309	4.72281
629.502	5.37105
629.696	4.32771
629.89	3.79208
630.083	4.10373
630.277	4.8654
630.47	7.15597
630.664	3.88391
630.857	2.53487
631.051	5.47145
631.244	6.26268
631.438	5.7155
631.631	3.13
631.825	6.32744
632.018	5.07872
632.212	6.79232
632.405	5.83274
632.598	3.40126
632.792	4.4493
632.985	1.06346
633.178	3.73003
633.372	3.99888
633.565	3.95396
633.758	6.23949
633.952	2.82679
634.145	3.25305
634.338	3.33013
634.531	3.52899
634.724	3.01944
634.918	4.31663
635.111	3.56923
635.304	3.37502
635.497	7.60267
635.69	4.78088
635.883	6.11101
636.077	2.23461
636.27	5.22614
636.463	5.01728
636.656	5.17153
636.849	3.65195
637.042	5.17871
637.235	7.60316
637.428	5.92439
637.621	6.17321
637.814	6.84305
638.007	7.37038
638.2	7.32083
638.393	8.04147
638.586	3.15421
638.778	3.80049
638.971	5.42816
639.164	7.90134
639.357	5.87897
639.55	6.94428
639.743	6.18167
639.935	6.50134
640.128	8.52003
640.321	5.71889
640.514	5.12103
640.707	9.50155
640.899	6.3913
641.092	2.55516
641.285	18.71858
641.477	1.64869
641.67	9.29808
641.863	7.40847
642.055	5.41469
642.248	5.5246
642.441	5.05256
642.633	6.67652
642.826	7.57678
643.018	8.28936
643.211	8.44056
643.403	8.96136
643.596	9.20476
643.788	8.77395
643.981	4.90205
644.173	6.72388
644.366	4.64261
644.558	2.05356
644.751	7.54165
644.943	3.17327
645.135	9.52253
645.328	9.02473
645.52	7.46849
645.712	7.2262
645.905	12.53224
646.097	4.2352
646.289	7.26807
646.482	9.60811
646.674	4.71466
646.866	8.18327
647.058	6.38458
647.251	4.02661
647.443	4.87906
647.635	5.33659
647.827	4.57152
648.019	4.47576
648.211	5.84277
648.404	6.38476
648.596	9.34135
648.788	6.88186
648.98	6.10974
649.172	6.92438
649.364	6.53792
649.556	3.05127
649.748	10.69387
649.94	4.43013
650.132	7.05818
650.324	3.93925
650.516	4.44602
650.708	8.49505
650.9	3.39457
651.092	5.27957
651.284	2.96992
651.476	3.14783
651.667	6.56486
651.859	8.63817
652.051	5.70335
652.243	6.22475
652.435	4.5813
652.627	6.92261
652.818	6.54605
653.01	3.0677
653.202	4.29382
653.394	5.72901
653.585	7.18249
653.777	15.40679
653.969	8.94262
654.16	8.1515
654.352	4.42481
654.544	5.24403
654.735	9.07454
654.927	6.62186
655.118	10.18284
655.31	8.07131
655.502	8.45386
655.693	4.76422
655.885	7.44412
656.076	9.09468
656.268	6.46807
656.459	9.24701
656.651	9.29073
656.842	5.14337
657.034	4.58142
657.225	7.94435
657.416	9.09498
657.608	8.72873
657.799	5.95921
657.99	7.96903
658.182	4.11628
658.373	4.49055
658.564	7.47589
658.756	5.70506
658.947	5.20828
659.138	3.4531
659.33	4.18322
659.521	3.84187
659.712	5.02891
659.903	4.90545
660.094	4.32582
660.286	2.6944
660.477	9.42048
660.668	6.50721
660.859	5.88303
661.05	2.85649
661.241	7.43781
661.432	7.53413
661.623	5.69714
661.814	5.11045
662.006	2.44916
662.197	7.20418
662.388	8.24845
662.579	7.03375
662.77	9.73221
662.96	12.99766
663.151	9.17509
663.342	2.98534
663.533	7.21375
663.724	6.06259
663.915	10.52933
664.106	6.06513
664.297	10.96527
664.488	8.40966
664.678	6.31304
664.869	8.24088
665.06	9.05979
665.251	7.6808
665.442	8.30096
665.632	4.72867
665.823	12.00157
666.014	0.82938
666.204	9.25612
666.395	9.99368
666.586	14.48311
666.776	9.89767
666.967	10.97412
667.158	6.69436
667.348	11.18096
667.539	4.56527
667.729	9.18671
667.92	5.50467
668.111	9.63508
668.301	8.86946
668.492	6.29645
668.682	7.10381
668.873	6.1612
669.063	4.2914
669.253	7.08488
669.444	9.8391
669.634	6.42048
669.825	11.78572
670.015	9.21128
670.206	5.4273
670.396	13.06315
670.586	7.4536
670.777	8.58776
670.967	2.13861
671.157	7.15519
671.347	5.73127
671.538	11.538
671.728	9.05656
671.918	12.24234
672.108	9.39747
672.299	7.12236
672.489	8.87406
672.679	6.78463
672.869	8.88113
673.059	12.61998
673.249	9.4358
673.44	5.0929
673.63	7.21688
673.82	10.31159
674.01	5.89091
674.2	9.10464
674.39	15.3553
674.58	9.14087
674.77	8.62865
674.96	8.31988
675.15	19.08673
675.34	10.6315
675.53	7.97567
675.72	7.10744
675.91	4.76913
676.099	12.87499
676.289	14.90354
676.479	10.99932
676.669	6.87157
676.859	9.75631
677.049	5.43919
677.238	8.36184
677.428	13.34948
677.618	9.53168
677.808	11.18348
677.997	9.89756
678.187	4.59215
678.377	7.54028
678.567	6.80578
678.756	6.51599
678.946	6.56615
679.136	3.97969
679.325	5.19537
679.515	5.33006
679.704	4.08064
679.894	8.89566
680.084	7.89689
680.273	10.6337
680.463	4.85604
680.652	4.74276
680.842	6.63567
681.031	9.56554
681.221	5.16295
681.41	8.03817
681.6	7.08056
681.789	9.5368
681.978	10.42982
682.168	8.20958
682.357	8.30214
682.547	9.80651
682.736	8.70365
682.925	11.08744
683.115	10.41027
683.304	10.38736
683.493	9.1711
683.682	10.13401
683.872	9.94858
684.061	12.04454
684.25	10.68524
684.439	14.33071
684.629	10.15976
684.818	19.41001
685.007	8.23172
685.196	6.99688
685.385	13.59448
685.574	9.90835
685.763	8.75066
685.952	8.48767
686.142	6.18653
686.331	12.92606
686.52	3.5711
686.709	13.65814
686.898	14.46508
687.087	10.80063
687.276	14.47628
687.465	12.62765
687.654	8.15511
687.842	14.81821
688.031	4.9661
688.22	12.91096
688.409	9.68438
688.598	9.8095
688.787	16.95281
688.976	9.89475
689.165	15.39192
689.353	7.83773
689.542	10.98357
689.731	12.11721
689.92	15.64512
690.108	12.48786
690.297	8.74517
690.486	10.35365
690.675	11.76162
690.863	16.24985
691.052	15.28328
691.241	11.17757
691.429	10.82392
691.618	14.39712
691.806	6.0723
691.995	8.83072
692.184	10.50261
692.372	8.25266
692.561	10.23748
692.749	10.51752
692.938	19.19483
693.126	12.66961
693.315	11.48192
693.503	12.38685
693.692	13.43752
693.88	13.99781
694.068	18.32405
694.257	10.01546
694.445	11.86542
694.634	4.50392
694.822	14.79589
695.01	15.35406
695.199	16.51325
695.387	16.56411
695.575	15.5944
695.763	11.07565
695.952	9.63632
696.14	5.53844
696.328	8.65788
696.516	10.75684
696.705	10.95621
696.893	11.18008
697.081	4.63503
697.269	13.02423
697.457	7.03964
697.645	6.01781
697.833	12.82138
698.021	7.19656
698.21	7.44449
698.398	8.69289
698.586	5.58711
698.774	5.1473
698.962	7.84392
699.15	5.68225
699.338	4.27779
699.526	9.92112
699.714	6.99402
699.901	6.80881
700.089	12.12842
700.277	6.44513
700.465	8.22083
700.653	12.0383
700.841	11.56587
701.029	7.04797
701.217	14.57877
701.404	10.96424
701.592	15.27043
701.78	17.89244
701.968	9.85513
702.155	10.52642
702.343	5.16389
702.531	16.2705
702.718	12.97894
702.906	10.81925
703.094	8.88688
703.281	16.50086
703.469	10.45454
703.657	15.99099
703.844	24.4548
704.032	18.62555
704.219	9.67891
704.407	14.54963
704.595	17.94818
704.782	11.96056
704.97	10.30265
705.157	9.83036
705.345	17.77691
705.532	22.6234
705.719	13.26627
705.907	19.00514
706.094	13.08635
706.282	19.36471
706.469	10.06934
706.656	12.73161
706.844	11.76898
707.031	15.95459
707.218	13.53662
707.406	19.32896
707.593	15.50033
707.78	16.10285
707.968	12.14638
708.155	8.60964
708.342	16.30288
708.529	15.68722
708.716	13.69771
708.904	20.22752
709.091	14.92323
709.278	8.23012
709.465	20.11982
709.652	20.33078
709.839	18.35931
710.026	14.83475
710.213	6.41643
710.4	13.92605
710.587	17.7545
710.774	18.59525
710.961	17.82145
711.148	13.44906
711.335	18.796
711.522	13.13646
711.709	15.29427
711.896	21.96416
712.083	17.50359
712.27	8.94391
712.457	14.16264
712.644	8.06083
712.831	22.12479
713.017	13.67192
713.204	17.31791
713.391	10.70571
713.578	19.62521
713.765	20.8003
713.951	17.1311
714.138	29.39093
714.325	17.39012
714.512	14.44046
714.698	10.51487
714.885	21.54215
715.072	16.47869
715.258	15.45197
715.445	12.64648
715.631	20.29751
715.818	4.47056
716.005	12.61862
716.191	17.44215
716.378	13.10619
716.564	18.46765
716.751	10.81142
716.937	13.48643
717.124	20.90238
717.31	10.84474
717.497	22.6606
717.683	12.1792
717.869	25.82505
718.056	13.04234
718.242	19.36503
718.429	15.63957
718.615	10.46308
718.801	16.39
718.988	21.03547
719.174	18.30768
719.36	14.94818
719.547	21.65311
719.733	19.56669
719.919	18.12242
720.105	20.02441
720.291	16.00023
720.478	17.98613
720.664	16.33006
720.85	13.5735
721.036	31.83701
721.222	25.41447
721.408	15.79885
721.595	27.01376
721.781	26.53653
721.967	23.29862
722.153	25.54615
722.339	21.50953
722.525	19.41792
722.711	12.39046
722.897	9.71762
723.083	14.46066
723.269	22.35749
723.455	32.03413
723.641	34.00328
723.827	19.43192
724.012	21.27609
724.198	16.00544
724.384	25.05677
724.57	19.31861
724.756	8.85009
724.942	7.71602
725.127	23.89699
725.313	24.33184
725.499	26.15448
725.685	28.66272
725.87	21.27537
726.056	13.33001
726.242	25.87354
726.428	9.42665
726.613	23.15442
726.799	14.94704
726.985	12.39825
727.17	10.39805
727.356	27.74338
727.541	14.12034
727.727	17.96768
727.913	23.13896
728.098	16.05468
728.284	22.44205
728.469	11.37464
728.655	13.29381
728.84	22.95016
729.026	22.66578
729.211	23.35224
729.397	20.63219
729.582	21.54874
729.767	17.95004
729.953	20.66288
730.138	24.14694
730.323	5.75207
730.509	11.48297
730.694	26.30915
730.879	21.43307
731.065	20.52406
731.25	31.38418
731.435	22.9267
731.621	10.88022
731.806	15.65829
731.991	21.393
732.176	9.18996
732.361	26.65392
732.547	22.18978
732.732	9.65881
732.917	33.23604
733.102	11.56432
733.287	15.68957
733.472	19.27623
733.657	18.73701
733.842	10.66127
734.027	16.67342
734.212	17.22041
734.397	14.45418
734.582	19.51027
734.767	22.72872
734.952	26.35265
735.137	5.11701
735.322	27.65892
735.507	19.72605
735.692	20.80956
735.877	33.12072
736.062	30.92474
736.247	21.47656
736.431	18.36643
736.616	27.79078
736.801	21.90129
736.986	20.45937
737.171	15.31474
737.355	9.82474
737.54	29.17219
737.725	20.57214
737.909	38.44736
738.094	16.27621
738.279	25.24085
738.463	19.32235
738.648	23.83704
738.833	22.00486
739.017	34.11473
739.202	19.22599
739.386	19.39458
739.571	15.37311
739.756	25.87746
739.94	21.68382
740.125	26.72535
740.309	15.75702
740.494	24.16785
740.678	21.96462
740.863	23.16881
741.047	22.98532
741.231	28.87786
741.416	14.88444
741.6	32.52538
741.785	14.54769
741.969	27.35013
742.153	29.04822
742.338	6.53213
742.522	20.99358
742.706	27.7988
742.89	12.58253
743.075	23.14713
743.259	32.33058
743.443	29.68452
743.627	30.20256
743.812	39.08531
743.996	6.04153
744.18	20.43437
744.364	18.0739
744.548	41.04462
744.732	20.89054
744.916	25.88913
745.1	26.21638
745.285	20.06231
745.469	24.68012
745.653	37.09421
745.837	11.95168
746.021	38.15496
746.205	30.98239
746.389	24.90992
746.573	21.94667
746.757	35.47357
746.94	22.36538
747.124	30.08415
747.308	13.80915
747.492	31.28181
747.676	18.22919
747.86	41.28793
748.044	20.21606
748.227	11.63403
748.411	51.64834
748.595	26.47545
748.779	16.55276
748.963	26.97991
749.146	25.43764
749.33	16.57599
749.514	15.3528
749.697	30.58067
749.881	19.24423
750.065	14.63449
750.248	22.17236
750.432	42.62178
750.616	24.8617
750.799	13.19312
750.983	39.66302
751.166	45.98101
751.35	11.04164
751.533	28.18226
751.717	34.00881
751.9	36.74573
752.084	17.96482
752.267	14.12099
752.451	16.58986
752.634	23.45606
752.818	27.94254
753.001	29.96585
753.184	32.11509
753.368	26.02045
753.551	1.00185
753.734	17.42389
753.918	41.73668
754.101	18.56718
754.284	28.55627
754.467	20.95093
754.651	17.06206
754.834	17.01116
755.017	34.18508
755.2	31.2628
755.384	13.71071
755.567	28.7074
755.75	34.33565
755.933	19.79694
756.116	26.80778
756.299	20.52628
756.482	17.09322
756.665	31.52499
756.848	29.29727
757.032	25.75625
757.215	12.61607
757.398	15.6919
757.581	17.73542
757.764	46.85144
757.947	23.25455
758.129	32.63331
758.312	1.64548
758.495	22.3859
758.678	21.53758
758.861	23.89879
759.044	43.60927
759.227	18.30579
759.41	16.33874
759.592	28.45439
759.775	23.87144
759.958	32.31055
760.141	11.96055
760.324	41.61473
760.506	37.49371
760.689	29.71065
760.872	44.88989
761.054	27.7285
761.237	21.26492
761.42	29.8632
761.602	32.83062
761.785	29.41934
761.968	34.51322
762.15	39.8667
762.333	23.80631
762.515	28.69862
762.698	18.3493
762.88	26.9557
763.063	26.63119
763.245	29.79196
763.428	17.12264
763.61	15.56369
763.793	13.5007
763.975	24.93797
764.158	18.82564
764.34	18.1583
764.522	15.09797
764.705	19.9261
764.887	34.94676
765.069	11.65199
765.252	27.08525
765.434	29.24737
765.616	21.83463
765.799	16.96127
765.981	30.19453
766.163	14.73698
766.345	31.3819
766.528	19.80594
766.71	5.71506
766.892	23.58514
767.074	35.41223
767.256	23.85175
767.438	39.68011
767.62	25.40398
767.802	49.07692
767.985	30.57276
768.167	43.27917
768.349	20.20025
768.531	33.26571
768.713	28.21714
768.895	34.02826
769.077	29.11529
769.259	52.11686
769.441	77.82701
769.623	38.21727
769.804	41.75982
769.986	41.6102
770.168	52.62207
770.35	66.78696
770.532	46.4759
770.714	50.47657
770.896	52.97133
771.077	14.94994
771.259	54.25551
771.441	45.24131
771.623	56.62907
771.804	77.90246
771.986	17.07321
772.168	38.61832
772.35	57.10853
772.531	77.58932
772.713	48.82119
772.894	56.9237
773.076	42.22105
773.258	31.40004
773.439	62.07116
773.621	63.06485
773.802	24.65042
773.984	40.37838
774.166	46.64802
774.347	71.67573
774.529	55.20171
774.71	14.24607
774.891	39.35188
775.073	39.01847
775.254	67.44742
775.436	30.40741
775.617	69.46581
775.799	33.33141
775.98	70.81859
776.161	70.92381
776.343	65.85754
776.524	45.41062
776.705	39.85052
776.886	20.85671
777.068	44.89151
777.249	84.23982
777.43	76.55694
777.611	26.45432
777.793	45.32461
777.974	72.15283
778.155	38.17291
778.336	34.1958
778.517	73.26712
778.698	34.91734
778.879	14.17518
779.061	4.03326
779.242	53.55134
779.423	50.91734
779.604	32.4843
779.785	41.45322
779.966	51.48191
780.147	57.70338
780.328	59.90401
780.509	86.10795
780.69	57.44743
780.871	35.34858
781.051	18.36767
781.232	48.5531
781.413	48.19889
781.594	35.2761
781.775	37.49075
781.956	34.9254
782.137	16.19764
782.317	34.40194
782.498	48.53483
782.679	50.47318
782.86	46.5532
783.04	31.84898
783.221	48.28017
783.402	81.61416
783.583	46.48667
783.763	57.25697
783.944	39.14765
784.124	21.86628
784.305	73.62144
784.486	53.37024
784.666	43.42399
784.847	15.04813
785.027	89.44065
785.208	31.55664
785.388	34.8704
785.569	32.41783
785.749	38.4537
785.93	36.71067
786.11	21.64791
786.291	46.71766
786.471	46.65313
786.652	56.40334
786.832	41.47374
787.012	50.90792
787.193	26.27434
787.373	42.5778
787.553	37.94048
787.734	43.58493
787.914	35.88821
788.094	51.1762
788.275	47.13608
788.455	35.59766
788.635	23.03569
788.815	47.05123
788.995	25.47007
789.176	22.03617
789.356	31.38217
789.536	38.33944
789.716	51.67332
789.896	27.9108
790.076	36.727
790.256	46.03493
790.436	9.98158
790.616	26.5669
790.796	48.22089
790.976	36.83806
791.156	36.3697
791.336	52.84573
791.516	48.13248
791.696	38.29352
791.876	20.3178
792.056	42.56438
792.236	58.42262
792.416	55.57568
792.596	52.59396
792.776	52.88061
792.956	53.14481
793.135	70.01345
793.315	23.32413
793.495	64.05516
793.675	52.14773
793.854	55.76092
794.034	59.00291
794.214	27.00523
794.394	57.5451
794.573	61.98899
794.753	42.23594
794.933	30.39349
795.112	44.28841
795.292	56.02831
795.472	72.74098
795.651	25.03458
795.831	45.68478
796.01	35.66913
796.19	38.42745
796.369	37.41152
796.549	47.87199
796.728	38.6554
796.908	24.76695
797.087	26.86395
797.267	41.33926
797.446	26.53555
797.626	45.79674
797.805	47.62261
797.984	30.57673
798.164	48.47849
798.343	28.29341
798.522	48.28406
798.702	45.96802
798.881	22.56737
799.06	38.71476
799.239	12.46829
799.419	28.84093
799.598	66.07064
799.777	50.1793
799.956	59.80837
800.136	38.30696
800.315	30.01364
800.494	46.55741
800.673	57.7708
800.852	54.19656
801.031	65.70806
801.21	52.40147
801.389	32.17129
801.568	48.9186
801.747	73.23131
801.926	41.56796
802.105	66.83675
802.284	37.73153
802.463	66.77057
802.642	48.26937
802.821	50.31947
803	65.92668
803.179	52.90915
803.358	63.67155
803.537	33.30829
803.716	54.94125
803.895	30.70615
804.073	42.94269
804.252	34.31148
804.431	50.6087
804.61	46.14129
804.789	62.31053
804.967	37.94917
805.146	35.36449
805.325	80.63422
805.503	54.33369
805.682	28.13381
805.861	85.95004
806.039	65.52447
806.218	34.15726
806.397	47.92594
806.575	45.95335
806.754	51.68424
806.932	30.12929
807.111	71.12364
807.289	57.23671
807.468	48.01006
807.646	61.56402
807.825	47.83627
808.003	48.60845
808.182	61.0667
808.36	49.53215
808.539	32.96304
808.717	69.84431
808.895	30.01809
809.074	49.48866
809.252	36.96595
809.43	61.395
809.609	72.80964
809.787	82.05677
809.965	42.05861
810.144	46.01205
810.322	35.40762
810.5	55.97465
810.678	45.82117
810.856	90.22372
811.035	64.65884
811.213	68.62
811.391	62.76825
811.569	50.71025
811.747	109.2791
811.925	69.04369
812.103	40.78524
812.281	40.91177
812.459	87.71611
812.637	83.76732
812.816	74.71672
812.994	86.76851
813.171	65.7464
813.349	62.68095
813.527	79.67876
813.705	67.14537
813.883	90.04604
814.061	71.07486
814.239	92.22709
814.417	104.83608
814.595	58.76046
814.773	61.37208
814.95	55.93003
815.128	62.53307
815.306	52.5144
815.484	47.33891
815.662	33.26777
815.839	29.39358
816.017	44.98472
816.195	67.76158
816.372	52.67966
816.55	69.24579
816.728	81.226
816.905	52.13066
817.083	78.96998
817.261	57.15487
817.438	102.74274
817.616	91.62217
817.793	45.54187
817.971	70.92064
818.148	62.43016
818.326	78.04659
818.503	64.54061
818.681	76.3474
818.858	41.47848
819.036	52.02265
819.213	57.66234
819.391	39.78435
819.568	36.39521
819.745	31.25765
819.923	57.15636
820.1	38.9779
820.277	35.04839
820.455	40.60891
820.632	40.30949
820.809	44.7837
820.986	25.22337
821.164	19.99937
821.341	18.12952
821.518	24.7341
821.695	17.92305
821.872	16.01498
822.05	13.20582
822.227	9.32322
822.404	10.28648
822.581	12.25734
822.758	10.15587
822.935	10.50354
823.112	12.91384
823.289	10.02513
823.466	13.50705
823.643	12.44404
823.82	15.6347
823.997	14.32587
824.174	18.89953
824.351	24.69518
824.528	25.40181
824.705	22.56669
824.882	25.08933
825.059	35.177
825.236	22.81731
825.412	22.9329
825.589	30.0737
825.766	44.26618
825.943	26.99929
826.12	32.20095
826.296	18.90244
826.473	25.69817
826.65	26.88216
826.827	32.63741
827.003	18.87542
827.18	22.51682
827.357	25.75088
827.533	21.60499
827.71	9.52283
827.887	18.92673
828.063	22.33025
828.24	19.60587
828.416	27.40574
828.593	22.20848
828.769	34.44007
828.946	38.93775
829.122	40.4162
829.299	41.49838
829.475	15.94848
829.652	37.28839
829.828	65.72956
830.005	43.83438
830.181	53.89607
830.357	34.79762
830.534	62.95813
830.71	42.83236
830.886	60.55299
831.063	51.28652
831.239	69.60888
831.415	34.30376
831.592	78.18719
831.768	43.45018
831.944	38.2442
832.12	76.32704
832.296	64.99593
832.473	58.54576
832.649	38.41929
832.825	53.17316
833.001	29.72843
833.177	47.11457
833.353	43.02441
833.529	19.96958
833.705	32.69362
833.881	22.23713
834.058	20.74655
834.234	23.4056
834.41	24.00177
834.586	18.68094
834.761	22.55724
834.937	26.02903
835.113	27.26111
835.289	24.19811
835.465	32.12985
835.641	26.78619
835.817	31.33996
835.993	62.13581
836.169	26.39099
836.344	43.34748
836.52	50.08239
836.696	54.86732
836.872	34.17863
837.048	111.35785
837.223	35.92673
837.399	97.88698
837.575	77.24556
837.75	66.14923
837.926	95.98989
838.102	148.61293
838.277	106.44994
838.453	158.92529
838.628	151.40303
838.804	46.81599
838.98	147.26629
839.155	69.78412
839.331	96.04469
839.506	72.71944
839.682	64.95437
839.857	75.28654
840.033	94.42757
840.208	45.39716
840.384	22.36521
840.559	46.51247
840.734	72.07442
840.91	100.30849
841.085	64.58165
841.26	63.66678
841.436	58.81056
841.611	47.61165
841.786	90.98642
841.962	122.03752
842.137	77.1976
842.312	40.65301
842.487	65.80531
842.663	60.22631
842.838	78.50936
843.013	248.21433
843.188	124.55107
843.363	113.37835
843.538	224.67441
843.714	231.15719
843.889	221.20501
844.064	191.02779
844.239	162.91317
844.414	240.59746
844.589	148.95756
844.764	266.81944
844.939	277.12366
845.114	259.63084
845.289	319.86089
845.464	364.18437
845.639	245.77685
845.814	153.54988
845.989	188.63475
846.163	196.61357
846.338	263.16443
846.513	318.44251
846.688	219.0161
846.863	235.48449
847.038	157.68039
847.212	207.0762
847.387	216.0725
847.562	221.24456
847.737	297.66805
847.911	102.85326
848.086	150.34006
848.261	354.05073
848.435	183.31174
848.61	296.79762
848.785	146.54445
848.959	315.6171
849.134	295.66651
849.308	632.4934
849.483	233.00066
849.658	347.68273
849.832	192.13882
850.007	131.72439
850.181	475.37043
850.356	257.23146
850.53	399.52195
850.705	142.75363
850.879	85.78644
851.053	163.86822
851.228	212.9519
851.402	320.48224
851.577	290.36234
851.751	389.83413
851.925	205.70363
852.099	80.08691
852.274	173.62141
852.448	211.98036
852.622	300.19826
852.797	218.90272
852.971	230.79785
853.145	248.90145
853.319	479.60442
853.493	428.91268
853.668	247.43533
853.842	511.10449
854.016	385.38605
854.19	467.73002
854.364	231.32419
854.538	314.50576
854.712	324.77796
854.886	215.49533
855.06	226.40538
855.234	72.85777
855.408	369.25096
855.582	337.67742
855.756	506.94665
855.93	368.49462
856.104	324.08911
856.278	324.45331
856.452	232.89803
856.626	259.2136
856.8	463.80496
856.973	359.59384
857.147	344.5281
857.321	320.09007
857.495	336.21588
857.669	285.29977
857.842	279.12136
858.016	400.19763
858.19	169.28662
858.364	502.46173
858.537	234.79614
858.711	338.20488
858.885	243.49216
859.058	161.56282
859.232	138.91077
859.405	90.57365
859.579	332.0016
859.753	374.27969
859.926	179.45871
860.1	155.41476
860.273	264.33718
860.447	387.98996
860.62	229.45803
860.794	516.2464
860.967	231.83806
861.141	308.97149
861.314	489.86463
861.487	272.1402
861.661	356.03481
861.834	554.65911
862.008	343.75027
862.181	328.38226
862.354	281.96493
862.528	410.28591
862.701	223.12663
862.874	151.61587
863.047	202.34354
863.221	183.49606
863.394	107.74767
863.567	301.87618
863.74	85.62046
863.913	320.93664
864.087	307.7194
864.26	356.11381
864.433	263.66504
864.606	508.48255
864.779	321.8246
864.952	111.40497
865.125	291.10527
865.298	266.08829
865.471	276.18332
865.644	450.25831
865.817	337.65274
865.99	376.39729
866.163	405.97362
866.336	183.44423
866.509	301.51268
866.682	275.15866
866.855	439.92518
867.028	128.49992
867.2	263.69536
867.373	72.96785
867.546	235.49348
867.719	498.49667
867.892	337.05681
868.064	173.71421
868.237	251.99933
868.41	253.70046
868.583	152.96824
868.755	151.72199
868.928	222.20701
869.101	544.68761
869.273	411.02817
869.446	273.45245
869.619	404.65769
869.791	372.24614
869.964	405.73368
870.136	424.70011
870.309	194.75079
870.481	290.52337
870.654	112.82408
870.826	234.81224
870.999	194.16003
871.171	375.3679
871.344	168.48278
871.516	207.1192
871.689	162.19449
871.861	273.30117
872.033	162.65415
872.206	206.22181
872.378	257.04998
872.55	252.62715
872.723	132.14694
872.895	227.32518
873.067	331.42008
873.24	279.52361
873.412	190.89305
873.584	226.04471
873.756	223.05612
873.928	250.34595
874.101	238.87363
874.273	285.15206
874.445	89.37752
874.617	123.4046
874.789	201.92655
874.961	186.75998
875.133	272.99066
875.305	256.42308
875.477	151.35104
875.649	103.9692
875.821	153.56347
875.993	339.96161
876.165	227.78152
876.337	248.45798
876.509	217.14406
876.681	248.77635
876.853	231.02843
877.025	259.42386
877.197	183.35447
877.369	142.34234
877.541	271.03207
877.712	62.47255
877.884	138.48331
878.056	225.30575
878.228	129.16497
878.4	269.45895
878.571	127.36965
878.743	77.99395
878.915	185.37077
879.086	98.96926
879.258	130.55893
879.43	115.07078
879.601	102.60626
879.773	96.77599
879.945	17.50465
880.116	35.53857
880.288	20.01826
880.459	24.31569
880.631	16.35484
880.802	20.67707
880.974	19.63682
881.145	11.0771
881.317	18.08946
881.488	12.69892
881.66	14.33436
881.831	12.11421
882.002	18.87871
882.174	13.10564
882.345	18.59715
882.517	7.70808
882.688	23.24821
882.859	17.75506
883.03	33.96899
883.202	32.76302
883.373	26.84694
883.544	27.22743
883.715	50.34241
883.887	41.52675
884.058	35.79012
884.229	56.79053
884.4	55.03214
884.571	62.70927
884.742	57.17712
884.914	58.18711
885.085	93.36927
885.256	124.58165
885.427	95.38966
885.598	119.65381
885.769	114.65491
885.94	115.21419
886.111	80.99915
886.282	135.57524
886.453	105.16081
886.624	87.67845
886.795	153.20279
886.966	118.62129
887.136	155.71339
887.307	124.69869
887.478	204.92571
887.649	192.68904
887.82	196.07305
887.991	141.089
888.161	230.21409
888.332	210.86981
888.503	120.40845
888.674	300.72891
888.844	345.23209
889.015	329.46639
889.186	148.02975
889.356	323.62414
889.527	129.73439
889.698	527.8955
889.868	197.93222
890.039	326.0562
890.209	208.58034
890.38	279.09802
890.551	271.38202
890.721	364.89569
890.892	329.16828
891.062	316.13116
891.233	331.2244
891.403	279.95264
891.574	180.42251
891.744	190.06005
891.914	239.75086
892.085	351.19717
892.255	72.30449
892.425	311.84935
892.596	207.30323
892.766	305.3126
892.936	409.70739
893.107	248.43408
893.277	109.70355
893.447	116.52409
893.618	72.01955
893.788	156.76261
893.958	91.30832
894.128	68.44733
894.298	84.93457
894.468	107.64463
894.639	47.71915
894.809	22.58762
894.979	56.07154
895.149	59.43259
895.319	42.66021
895.489	74.96402
895.659	98.33535
895.829	60.97991
895.999	60.81385
896.169	52.00304
896.339	65.5575
896.509	133.94814
896.679	155.55728
896.849	175.01161
897.019	240.4024
897.189	238.52986
897.358	159.86682
897.528	291.70599
897.698	149.67055
897.868	269.54394
898.038	550.84796
898.208	479.62985
898.377	153.09655
898.547	782.96095
898.717	825.45271
898.886	363.64296
899.056	561.03223
899.226	900.83103
899.395	672.50755
899.565	731.28999
899.735	447.62124
899.904	607.64111
900.074	862.99623
900.244	268.47865
900.413	1698.75086
900.583	302.47833
900.752	3348.734
900.922	590.82196
901.091	30.53291
901.261	624.8919
901.43	508.2326
901.599	651.5029
901.769	1444.52215
901.938	717.70798
902.108	639.42609
902.277	736.32823
902.446	281.65669
902.616	288.89125
902.785	443.1204
902.954	561.52965
903.124	283.49643
903.293	216.30096
903.462	91.24518
903.631	154.61272
903.801	101.49348
903.97	49.21828
904.139	85.15834
904.308	65.01387
904.477	53.23248
904.646	28.77688
904.816	44.49288
904.985	70.73888
905.154	99.34241
