Data from WindowProjectSample_Transmission__80__00080.txt Node

Date: Sat May 03 18:04:28 EDT 2025
User: jessi
Spectrometer: SR400872
Trigger mode: 0
Integration Time (sec): 5.000010E-1
Scans to average: 6
Electric dark correction enabled: true
Nonlinearity correction enabled: true
Boxcar width: 0
XAxis mode: Wavelengths
Number of Pixels in Spectrum: 3648
>>>>>Begin Spectral Data<<<<<
184.909	3311.61216
185.132	3965.21964
185.355	-4112.73542
185.578	4188.67775
185.801	-376.05368
186.024	-5119.46032
186.247	1549.32397
186.47	616.83858
186.693	-155.6603
186.916	4481.81479
187.139	3104.07688
187.362	-1907.40158
187.585	5357.99836
187.808	28092.07209
188.031	28.0855
188.254	-4373.4947
188.476	749.07202
188.699	3708.43398
188.922	-252.81159
189.145	-6904.36247
189.368	-484.18976
189.591	-826.81151
189.813	-3220.92988
190.036	951.53021
190.259	-8353.52256
190.482	1332.36468
190.705	3967.69153
190.927	-1947.86603
191.15	-6447.06967
191.373	6473.782
191.595	-1251.12762
191.818	1980.04357
192.041	-625.44565
192.263	1961.69059
192.486	-2641.524
192.709	-23446.91072
192.931	1795.65485
193.154	-3720.63582
193.377	-2460.97863
193.599	4441.76275
193.822	1865.91598
194.044	6011.20762
194.267	902.92958
194.489	-114.18866
194.712	2612.04784
194.934	8691.46367
195.157	-23178.60526
195.379	2422.90152
195.602	1691.93085
195.824	1452.65489
196.047	52907.29494
196.269	3190.80289
196.492	-1952.35725
196.714	-1201.31895
196.936	1798.97835
197.159	-11496.82591
197.381	-383.6646
197.604	-5130.76601
197.826	-17262.14111
198.048	10039.37893
198.271	-8431.06743
198.493	4337.97344
198.715	3630.34789
198.938	-755.50472
199.16	-18993.30209
199.382	1142.53988
199.604	-1822.25866
199.827	-3593.78851
200.049	2296.6141
200.271	-7626.52197
200.493	-49721.65523
200.715	3578.83855
200.938	-3021.7317
201.16	-2723.35413
201.382	-1690.07073
201.604	-3463.9163
201.826	3359.96321
202.048	3352.75057
202.27	-1113.35612
202.492	-3269.51872
202.715	-1323.91254
202.937	-17697.291
203.159	2427.35242
203.381	2215.66257
203.603	-2916.44398
203.825	-814.81949
204.047	56799.81746
204.269	-1314.80564
204.491	-1114.14822
204.713	64482.6115
204.935	-3380.83315
205.156	-954.78868
205.378	-4607.97547
205.6	-1297.57162
205.822	2362.87532
206.044	-432.35164
206.266	6587.69039
206.488	887.14739
206.71	3348.16639
206.932	1610.36183
207.153	-1621.31693
207.375	-2822.68057
207.597	3890.36654
207.819	28869.21071
208.041	4055.45869
208.262	-1392.20618
208.484	-1162.68894
208.706	-1564.2666
208.927	3051.72476
209.149	5306.08071
209.371	-5422.9408
209.593	396.90138
209.814	-28147.52782
210.036	2435.65077
210.258	-688.97695
210.479	4349.42994
210.701	-3417.89919
210.922	-11264.8463
211.144	-845.62876
211.366	5233.66265
211.587	-2066.47743
211.809	-4950.41934
212.03	-872.04798
212.252	-550.23894
212.473	3252.99434
212.695	-743.43968
212.916	-923.20295
213.138	593.55296
213.359	-1316.33191
213.581	12301.77201
213.802	-2053.00415
214.024	-2435.18945
214.245	-6565.05503
214.466	-280.15119
214.688	-3135.77634
214.909	-20179.18409
215.131	-4469.58716
215.352	-2209.48609
215.573	11369.59327
215.795	1542.76859
216.016	6565.22655
216.237	-550.99886
216.459	6647.29342
216.68	-3339.19835
216.901	-2650.75596
217.122	-2148.17787
217.344	-7257.91055
217.565	-2965.25496
217.786	2308.1105
218.007	1559.27566
218.228	-609.97683
218.45	-4433.62372
218.671	1527.60483
218.892	3878.07998
219.113	1721.27009
219.334	347.04606
219.555	-6837.20882
219.776	11406.4935
219.997	4137.10232
220.219	1889.44097
220.44	1052.00798
220.661	1015.06648
220.882	-2500.30722
221.103	-1187.53721
221.324	2481.41354
221.545	3137.07821
221.766	-3452.04525
221.987	-589.68625
222.208	-10740.39483
222.429	172331.46685
222.65	-413.57941
222.87	-10380.85547
223.091	2665.67803
223.312	-1298.90504
223.533	2430.26216
223.754	2073.46016
223.975	2710.8372
224.196	-6174.23588
224.417	-2849.96067
224.637	8312.57947
224.858	1063.79039
225.079	1340.08222
225.3	1159.99109
225.521	4782.54828
225.741	934.30135
225.962	1246.07787
226.183	-498.79245
226.404	1435.61907
226.624	1087.57167
226.845	1533.35004
227.066	918.55012
227.286	550.3677
227.507	204.62124
227.728	201.85008
227.948	277.06581
228.169	92.2327
228.389	89.9257
228.61	48.55026
228.831	68.28299
229.051	6.72285
229.272	38.69703
229.492	49.65996
229.713	14.74709
229.933	39.04959
230.154	33.84725
230.374	55.43834
230.595	40.49957
230.815	28.96261
231.036	38.50122
231.256	-8.21435
231.477	72.78638
231.697	45.2166
231.917	50.18444
232.138	58.0589
232.358	132.2716
232.579	128.76079
232.799	21.78699
233.019	108.58362
233.24	138.72972
233.46	46.57527
233.68	80.54956
233.901	55.9589
234.121	36.39813
234.341	14.29438
234.561	-6.23921
234.782	29.22552
235.002	84.09254
235.222	-0.82496
235.442	71.33974
235.662	30.66708
235.883	74.07907
236.103	64.99991
236.323	42.42312
236.543	34.53869
236.763	50.06207
236.983	49.91237
237.203	46.9153
237.423	74.98536
237.643	109.20309
237.864	92.36092
238.084	22.73657
238.304	39.63442
238.524	54.74515
238.744	45.01105
238.964	78.25185
239.184	68.57251
239.404	75.17124
239.624	39.70613
239.843	65.60002
240.063	39.24638
240.283	25.72444
240.503	28.56644
240.723	26.73298
240.943	14.02802
241.163	21.00514
241.383	16.66939
241.603	7.97402
241.822	8.72975
242.042	7.44239
242.262	8.9443
242.482	9.79781
242.702	11.7995
242.921	3.641
243.141	7.51602
243.361	6.9068
243.581	10.35655
243.8	8.64914
244.02	5.6178
244.24	11.60119
244.459	9.99481
244.679	21.699
244.899	13.57369
245.118	15.42568
245.338	13.28731
245.558	16.99709
245.777	9.59013
245.997	10.28658
246.216	11.30665
246.436	6.19376
246.655	5.01758
246.875	3.51332
247.094	6.71677
247.314	2.311
247.533	3.532
247.753	4.77434
247.972	3.64943
248.192	1.35206
248.411	2.63012
248.631	3.84279
248.85	4.99149
249.07	4.25806
249.289	7.53462
249.508	5.27009
249.728	8.16498
249.947	9.00848
250.166	9.39876
250.386	4.99961
250.605	8.81691
250.824	12.04701
251.044	8.80052
251.263	26.9061
251.482	14.75276
251.701	14.31771
251.921	-0.2566
252.14	4.69609
252.359	4.95662
252.578	11.11845
252.798	3.66376
253.017	9.87727
253.236	5.58317
253.455	6.58915
253.674	13.63826
253.893	6.61139
254.112	7.84465
254.331	13.01178
254.551	11.06993
254.77	5.08369
254.989	16.33791
255.208	13.22779
255.427	16.25836
255.646	15.6912
255.865	24.10405
256.084	11.05131
256.303	10.94239
256.522	15.84181
256.741	2.792
256.96	3.92338
257.179	9.62719
257.397	12.43397
257.616	6.97085
257.835	7.11884
258.054	17.01918
258.273	10.17918
258.492	12.067
258.711	7.21043
258.93	3.53466
259.148	4.40845
259.367	4.61722
259.586	6.04746
259.805	2.97198
260.023	5.48873
260.242	4.10187
260.461	3.01625
260.68	1.62387
260.898	4.83978
261.117	1.58603
261.336	1.16489
261.554	4.11753
261.773	4.02269
261.992	0.94142
262.21	4.05387
262.429	4.88261
262.648	8.02238
262.866	9.50007
263.085	6.39424
263.303	5.85869
263.522	10.3298
263.74	10.26506
263.959	16.37444
264.178	8.4722
264.396	8.00792
264.615	5.82758
264.833	13.32016
265.051	11.13239
265.27	11.47015
265.488	12.3277
265.707	7.32302
265.925	12.27521
266.144	5.8425
266.362	7.0813
266.58	6.50405
266.799	5.47345
267.017	7.12555
267.235	6.02571
267.454	3.63318
267.672	2.224
267.89	5.10525
268.109	5.53016
268.327	4.96799
268.545	1.74072
268.763	4.57076
268.982	1.958
269.2	5.52895
269.418	3.29729
269.636	2.57755
269.854	4.68994
270.073	4.18322
270.291	2.02139
270.509	2.26874
270.727	4.80318
270.945	7.96185
271.163	7.8358
271.381	2.17916
271.599	3.48282
271.817	5.95138
272.036	2.40428
272.254	3.69829
272.472	2.94208
272.69	2.69824
272.908	2.94724
273.126	4.6334
273.344	5.89278
273.562	2.34295
273.779	3.27392
273.997	4.0698
274.215	4.82771
274.433	3.68945
274.651	5.09289
274.869	4.97622
275.087	3.23485
275.305	4.63078
275.523	2.96755
275.74	3.91516
275.958	5.92472
276.176	8.4554
276.394	3.06638
276.612	3.72815
276.829	3.49662
277.047	2.8945
277.265	3.43192
277.483	4.46219
277.7	5.07
277.918	4.22568
278.136	6.57998
278.353	3.88259
278.571	1.88921
278.789	5.84598
279.006	1.30648
279.224	3.43655
279.442	5.63597
279.659	3.82574
279.877	2.82206
280.094	6.12098
280.312	1.3625
280.529	3.88582
280.747	1.15475
280.964	2.92588
281.182	6.73568
281.399	3.35552
281.617	4.24877
281.834	3.03924
282.052	2.49761
282.269	3.46397
282.487	2.94118
282.704	2.1215
282.921	2.63646
283.139	3.7157
283.356	4.56281
283.574	4.02329
283.791	2.13355
284.008	5.6243
284.226	3.28424
284.443	3.8379
284.66	4.85709
284.877	3.60028
285.095	2.52303
285.312	1.806
285.529	1.30397
285.746	1.05576
285.964	2.37612
286.181	1.4888
286.398	2.15034
286.615	3.10421
286.832	2.95617
287.05	1.0326
287.267	2.1469
287.484	2.35032
287.701	3.10742
287.918	2.82645
288.135	3.17664
288.352	1.74568
288.569	1.67151
288.786	2.89419
289.003	2.1819
289.22	3.22301
289.437	2.12658
289.654	3.31987
289.871	3.48563
290.088	3.26397
290.305	2.50707
290.522	1.91476
290.739	2.38614
290.956	3.43787
291.173	4.41937
291.39	3.90085
291.607	2.65376
291.824	2.04218
292.04	1.25378
292.257	3.20812
292.474	3.59818
292.691	2.56825
292.908	1.17906
293.125	2.13433
293.341	1.33416
293.558	5.93692
293.775	2.36495
293.992	2.44085
294.208	0.94756
294.425	1.47214
294.642	2.16964
294.858	3.15129
295.075	0.83508
295.292	2.07181
295.508	2.6825
295.725	4.03681
295.942	2.1039
296.158	1.53697
296.375	2.26291
296.591	1.95724
296.808	2.11089
297.024	2.04178
297.241	2.45025
297.458	2.54744
297.674	0.22502
297.891	2.20585
298.107	1.66291
298.323	1.24037
298.54	2.94567
298.756	1.41673
298.973	0.64313
299.189	3.10204
299.406	1.23039
299.622	3.13489
299.838	3.14174
300.055	2.91221
300.271	0.89364
300.487	1.1056
300.704	1.3833
300.92	1.02542
301.136	4.32819
301.353	3.10546
301.569	2.38762
301.785	2.55427
302.001	3.11539
302.218	2.59069
302.434	2.60278
302.65	0.82828
302.866	1.99068
303.083	4.26054
303.299	4.06415
303.515	2.1358
303.731	2.52041
303.947	0.98405
304.163	1.258
304.379	2.4308
304.595	2.9256
304.812	1.47684
305.028	1.36417
305.244	1.91341
305.46	3.03945
305.676	3.17602
305.892	3.80112
306.108	2.33793
306.324	1.79994
306.54	4.18588
306.756	2.83095
306.972	2.77559
307.187	1.98523
307.403	3.72776
307.619	1.56137
307.835	3.34475
308.051	3.77157
308.267	0.79235
308.483	3.17613
308.699	2.67313
308.914	2.24021
309.13	2.19938
309.346	0.65827
309.562	1.0959
309.778	0.69922
309.993	2.73818
310.209	2.14093
310.425	0.94152
310.641	1.83647
310.856	1.04688
311.072	1.09152
311.288	2.07564
311.503	2.12073
311.719	0.4646
311.935	0.30069
312.15	2.44592
312.366	2.13706
312.581	2.65607
312.797	2.15159
313.013	2.77246
313.228	1.62523
313.444	2.31105
313.659	1.41145
313.875	2.45173
314.09	1.98225
314.306	3.51357
314.521	2.97617
314.737	2.75169
314.952	2.41117
315.168	1.9012
315.383	2.80196
315.599	1.97184
315.814	1.71151
316.029	2.93491
316.245	0.75415
316.46	0.80638
316.675	3.50731
316.891	4.34218
317.106	5.16864
317.321	2.99302
317.537	2.93451
317.752	3.0636
317.967	3.0145
318.183	1.59359
318.398	1.95925
318.613	3.25843
318.828	3.84813
319.043	2.9845
319.259	1.74945
319.474	2.53915
319.689	3.38309
319.904	0.63703
320.119	3.14248
320.334	2.56851
320.549	2.05497
320.765	3.50493
320.98	2.49991
321.195	3.35379
321.41	2.22633
321.625	3.30193
321.84	3.99873
322.055	4.19827
322.27	1.30819
322.485	1.06917
322.7	2.31122
322.915	3.43931
323.13	1.25955
323.345	3.77079
323.56	3.14096
323.775	3.00104
323.989	2.74421
324.204	2.43123
324.419	3.08894
324.634	0.86546
324.849	2.13314
325.064	4.59793
325.279	3.29946
325.493	2.97078
325.708	3.23257
325.923	1.41477
326.138	1.45896
326.352	3.94593
326.567	3.12645
326.782	1.83117
326.997	1.42454
327.211	2.78047
327.426	2.86722
327.641	1.84951
327.855	0.74526
328.07	2.74658
328.285	4.00476
328.499	1.84281
328.714	2.88859
328.928	3.05815
329.143	2.41527
329.358	3.27998
329.572	3.43172
329.787	3.43948
330.001	4.77976
330.216	0.95405
330.43	4.00437
330.645	4.26723
330.859	3.32939
331.074	1.68432
331.288	2.56477
331.503	3.5554
331.717	1.23017
331.931	2.27528
332.146	2.29925
332.36	4.05367
332.575	2.93935
332.789	2.44928
333.003	2.15727
333.218	2.94114
333.432	1.79414
333.646	3.00795
333.86	3.59216
334.075	3.9144
334.289	1.90833
334.503	1.48791
334.717	2.88933
334.932	2.95755
335.146	3.7752
335.36	2.1269
335.574	2.99742
335.788	2.81772
336.003	3.48544
336.217	2.97107
336.431	2.87348
336.645	1.74486
336.859	1.36718
337.073	2.03588
337.287	2.51884
337.501	1.27029
337.715	2.5127
337.929	2.84336
338.143	1.28316
338.357	2.22481
338.571	1.4952
338.785	2.75759
338.999	1.84184
339.213	1.84402
339.427	0.82713
339.641	3.37061
339.855	2.23789
340.069	1.79779
340.283	3.34514
340.497	4.05077
340.711	2.71324
340.924	1.78886
341.138	1.24363
341.352	0.82118
341.566	2.46392
341.78	0.61468
341.993	1.66115
342.207	1.22439
342.421	2.43118
342.635	2.42219
342.848	1.68062
343.062	0.23754
343.276	1.55891
343.49	4.38528
343.703	1.65934
343.917	2.82257
344.131	3.12489
344.344	1.52971
344.558	1.67799
344.771	1.43284
344.985	3.63634
345.199	3.71125
345.412	2.44703
345.626	2.46278
345.839	0.74294
346.053	1.06185
346.266	1.34499
346.48	2.80866
346.693	2.33536
346.907	2.81602
347.12	1.5416
347.334	2.51964
347.547	2.52993
347.76	1.87141
347.974	3.1831
348.187	2.54212
348.401	1.77908
348.614	1.70999
348.827	1.93338
349.041	2.78204
349.254	0.8665
349.467	1.90345
349.681	0.96377
349.894	1.73855
350.107	3.31403
350.32	3.57362
350.534	0.6791
350.747	1.62213
350.96	1.43796
351.173	1.39859
351.386	1.94251
351.6	1.57396
351.813	1.61847
352.026	2.14355
352.239	0.94316
352.452	1.65233
352.665	2.71906
352.878	1.72587
353.092	4.09346
353.305	2.67085
353.518	2.2731
353.731	1.17365
353.944	3.24682
354.157	1.30758
354.37	1.24409
354.583	1.04542
354.796	0.66206
355.009	2.93188
355.222	2.01532
355.435	1.98449
355.647	2.96093
355.86	1.05241
356.073	1.84954
356.286	1.47481
356.499	2.70496
356.712	2.10101
356.925	2.29579
357.138	2.89568
357.35	1.03222
357.563	1.60095
357.776	1.97647
357.989	1.51208
358.201	2.28985
358.414	1.84757
358.627	2.89331
358.84	1.67001
359.052	1.10559
359.265	0.94921
359.478	2.78518
359.69	-0.43731
359.903	2.2512
360.116	2.49749
360.328	0.45854
360.541	2.60302
360.753	0.83711
360.966	1.19594
361.179	1.40005
361.391	1.27175
361.604	0.77044
361.816	1.2298
362.029	1.04857
362.241	0.8784
362.454	1.18572
362.666	0.94788
362.879	1.61166
363.091	1.36614
363.304	0.93779
363.516	1.60375
363.728	0.5941
363.941	2.05511
364.153	1.00472
364.366	-0.02387
364.578	0.86354
364.79	1.97128
365.003	1.52158
365.215	1.29493
365.427	2.00617
365.639	2.58807
365.852	1.97191
366.064	3.3245
366.276	1.277
366.488	2.04402
366.701	1.29131
366.913	1.60395
367.125	1.51182
367.337	1.21936
367.549	1.47982
367.762	1.64321
367.974	1.71156
368.186	1.05938
368.398	2.75304
368.61	2.21129
368.822	2.04125
369.034	1.799
369.246	2.11469
369.458	3.37318
369.67	0.79859
369.882	3.06555
370.094	0.07203
370.306	3.08473
370.518	1.3954
370.73	0.95568
370.942	1.06949
371.154	1.27549
371.366	1.03001
371.578	1.88327
371.79	0.78757
372.002	2.50061
372.214	2.84988
372.425	1.94584
372.637	2.61453
372.849	1.50126
373.061	-0.2186
373.273	1.90373
373.484	2.14658
373.696	2.26132
373.908	-0.03339
374.12	2.4895
374.331	2.04667
374.543	1.00616
374.755	0.75994
374.967	1.63483
375.178	2.18582
375.39	1.53157
375.602	1.68826
375.813	0.71834
376.025	0.42211
376.236	1.48662
376.448	1.61289
376.66	1.0855
376.871	1.22841
377.083	2.37286
377.294	2.18921
377.506	1.03463
377.717	2.39782
377.929	1.71791
378.14	0.8891
378.352	1.95219
378.563	1.81698
378.775	2.436
378.986	1.00024
379.197	1.49927
379.409	1.3226
379.62	2.34548
379.832	1.75114
380.043	1.31214
380.254	1.45536
380.466	0.66447
380.677	3.79184
380.888	3.2413
381.1	3.42145
381.311	3.09512
381.522	1.4146
381.733	3.80069
381.945	1.24663
382.156	1.74683
382.367	1.26842
382.578	3.59781
382.789	3.38761
383.001	1.25575
383.212	2.28367
383.423	2.59729
383.634	2.32755
383.845	1.65528
384.056	1.10479
384.267	1.32361
384.478	1.30235
384.69	0.58801
384.901	1.88682
385.112	1.72572
385.323	2.51169
385.534	1.87823
385.745	1.80953
385.956	1.7914
386.167	0.77004
386.378	1.71087
386.588	0.34917
386.799	0.95369
387.01	0.19364
387.221	2.11145
387.432	1.33294
387.643	2.79151
387.854	1.33916
388.065	1.2816
388.275	1.15928
388.486	1.28123
388.697	1.3699
388.908	1.23729
389.119	2.3508
389.329	2.76498
389.54	1.44944
389.751	1.82065
389.962	2.33054
390.172	1.63528
390.383	0.90279
390.594	0.86856
390.804	0.91599
391.015	0.84912
391.226	1.46571
391.436	1.73415
391.647	1.6432
391.858	1.78292
392.068	0.29175
392.279	0.40571
392.489	1.27997
392.7	2.28034
392.91	0.54003
393.121	0.93938
393.331	1.71669
393.542	2.1237
393.752	1.53634
393.963	1.26831
394.173	1.34229
394.384	1.7637
394.594	1.27868
394.804	0.52146
395.015	1.35464
395.225	1.65782
395.436	0.58155
395.646	1.77454
395.856	0.53097
396.067	0.60882
396.277	2.10474
396.487	1.37539
396.697	1.08223
396.908	1.97838
397.118	1.94973
397.328	1.38625
397.538	2.01892
397.749	0.66304
397.959	2.02384
398.169	1.95842
398.379	0.5403
398.589	1.96692
398.8	1.3997
399.01	0.83507
399.22	1.33742
399.43	3.11424
399.64	0.80829
399.85	1.91681
400.06	1.21122
400.27	1.03335
400.48	1.44951
400.69	2.54827
400.9	0.9981
401.11	0.9241
401.32	2.19279
401.53	1.09126
401.74	2.64574
401.95	2.1259
402.16	0.36916
402.37	1.46451
402.58	0.91487
402.79	1.90045
403	1.9577
403.209	0.98455
403.419	1.99716
403.629	0.85475
403.839	1.90025
404.049	1.77464
404.258	0.64012
404.468	0.62442
404.678	1.72124
404.888	1.59231
405.097	0.33753
405.307	1.27367
405.517	1.62813
405.727	1.2822
405.936	1.02987
406.146	1.45816
406.356	2.20447
406.565	1.2716
406.775	0.77999
406.984	0.77351
407.194	2.52977
407.404	1.37758
407.613	1.53936
407.823	1.98544
408.032	2.06671
408.242	2.05536
408.451	1.0945
408.661	1.17352
408.87	2.69132
409.08	1.11362
409.289	1.71082
409.499	1.3364
409.708	1.62336
409.918	0.01982
410.127	1.25644
410.336	2.4258
410.546	1.91048
410.755	0.92288
410.964	1.07606
411.174	0.67509
411.383	1.79692
411.592	1.57044
411.802	0.55557
412.011	2.095
412.22	1.45777
412.429	2.5273
412.639	2.17385
412.848	2.36229
413.057	2.52359
413.266	2.23034
413.475	1.40067
413.685	1.90696
413.894	1.95361
414.103	2.27974
414.312	1.87856
414.521	1.43089
414.73	1.58935
414.939	2.76717
415.148	1.88026
415.357	1.67921
415.566	1.02537
415.776	1.20854
415.985	1.00749
416.194	1.82412
416.403	2.22044
416.611	0.36474
416.82	0.71912
417.029	1.16037
417.238	0.72643
417.447	0.40337
417.656	0.66233
417.865	0.55185
418.074	0.61534
418.283	0.9205
418.492	1.43266
418.7	1.33353
418.909	1.85421
419.118	1.22591
419.327	1.34317
419.536	1.00716
419.744	0.5248
419.953	1.41105
420.162	1.7108
420.371	0.32028
420.579	0.24031
420.788	1.36918
420.997	1.07717
421.205	1.24661
421.414	0.9972
421.623	0.57786
421.831	0.50478
422.04	1.37579
422.249	0.51839
422.457	1.26146
422.666	0.35175
422.874	1.60588
423.083	1.61389
423.291	1.30131
423.5	0.83934
423.708	1.26006
423.917	1.51751
424.125	0.99721
424.334	0.55733
424.542	2.57507
424.751	1.74825
424.959	1.52856
425.167	1.68777
425.376	1.80067
425.584	0.97558
425.793	1.39258
426.001	0.52536
426.209	1.57312
426.418	0.66399
426.626	0.89225
426.834	0.48811
427.042	1.04925
427.251	0.7173
427.459	1.52677
427.667	1.2421
427.875	0.51729
428.084	0.88913
428.292	1.8604
428.5	1.1935
428.708	0.92179
428.916	0.53841
429.124	1.26953
429.333	0.97783
429.541	0.79196
429.749	1.08911
429.957	0.98568
430.165	2.31482
430.373	0.62231
430.581	1.28126
430.789	1.75295
430.997	0.88982
431.205	0.79815
431.413	1.01926
431.621	0.8092
431.829	1.51744
432.037	0.66987
432.245	1.24318
432.453	1.05525
432.661	0.67032
432.869	2.24461
433.076	0.38543
433.284	0.99744
433.492	1.24385
433.7	1.74737
433.908	0.54037
434.116	1.16091
434.323	1.04256
434.531	1.03953
434.739	1.08412
434.947	1.59262
435.154	1.23344
435.362	1.15383
435.57	0.96527
435.778	0.78043
435.985	1.38229
436.193	0.85556
436.401	1.6646
436.608	1.05124
436.816	0.84771
437.023	2.10956
437.231	1.86296
437.439	1.17782
437.646	1.21386
437.854	1.29668
438.061	1.50865
438.269	1.02405
438.476	1.45522
438.684	0.95929
438.891	0.68289
439.099	0.36595
439.306	0.05841
439.514	0.40882
439.721	1.06943
439.929	0.59596
440.136	1.40395
440.343	1.26566
440.551	0.86926
440.758	2.416
440.965	1.54312
441.173	1.17088
441.38	0.54511
441.587	1.18859
441.795	0.63316
442.002	1.23535
442.209	1.36695
442.416	1.57007
442.624	1.37839
442.831	1.31331
443.038	0.6823
443.245	0.50828
443.452	0.73761
443.66	1.58626
443.867	0.51345
444.074	0.85003
444.281	0.67011
444.488	0.88229
444.695	0.92879
444.902	0.81989
445.109	1.31345
445.316	0.92132
445.523	0.639
445.73	0.48531
445.937	1.08108
446.144	1.33526
446.351	1.10674
446.558	0.47141
446.765	1.46791
446.972	1.78838
447.179	0.80438
447.386	2.07637
447.593	0.7539
447.8	1.97292
448.007	0.81519
448.214	1.06418
448.42	0.69897
448.627	1.66291
448.834	0.81328
449.041	0.97894
449.248	0.96839
449.454	1.66075
449.661	1.99329
449.868	1.15639
450.075	0.81699
450.281	0.10181
450.488	0.54949
450.695	0.88772
450.901	0.60342
451.108	0.95296
451.315	1.65315
451.521	1.17742
451.728	1.5918
451.935	0.78973
452.141	1.03972
452.348	1.30953
452.554	0.93736
452.761	0.79688
452.967	2.00787
453.174	1.15288
453.38	1.3244
453.587	0.4893
453.793	1.25721
454	1.98971
454.206	2.42752
454.413	2.00599
454.619	1.45771
454.825	0.6563
455.032	1.54159
455.238	1.74896
455.445	0.54071
455.651	1.36674
455.857	0.32898
456.064	0.94492
456.27	1.09162
456.476	1.32985
456.682	0.55374
456.889	1.52743
457.095	1.72122
457.301	2.6192
457.507	1.29638
457.714	1.19763
457.92	1.09309
458.126	0.76808
458.332	0.8779
458.538	0.76768
458.744	0.77804
458.951	0.94128
459.157	1.9959
459.363	1.20299
459.569	1.04949
459.775	1.60954
459.981	0.51366
460.187	0.95842
460.393	1.42359
460.599	2.05653
460.805	1.16543
461.011	1.23554
461.217	1.98518
461.423	1.78888
461.629	0.98604
461.835	1.71785
462.041	1.02731
462.247	2.16916
462.453	1.23151
462.658	1.26394
462.864	1.70897
463.07	1.64601
463.276	1.54948
463.482	1.57436
463.688	1.93497
463.893	1.22773
464.099	1.16128
464.305	2.27233
464.511	1.13714
464.716	1.44122
464.922	1.60515
465.128	0.94799
465.333	2.48095
465.539	1.61852
465.745	1.13186
465.95	1.67473
466.156	3.01798
466.362	2.09346
466.567	1.22936
466.773	1.23129
466.978	2.5736
467.184	0.8619
467.389	0.27793
467.595	1.90922
467.8	0.76881
468.006	2.22312
468.211	2.11455
468.417	1.02467
468.622	1.76221
468.828	2.06601
469.033	1.71093
469.239	3.3544
469.444	1.30694
469.649	2.1687
469.855	1.3719
470.06	1.51252
470.266	0.83208
470.471	1.95101
470.676	1.84237
470.881	0.62865
471.087	1.99562
471.292	2.64827
471.497	0.8133
471.703	1.02166
471.908	1.24832
472.113	1.49115
472.318	2.2317
472.523	0.85119
472.729	1.80592
472.934	2.03743
473.139	1.26357
473.344	2.12328
473.549	2.22015
473.754	1.19692
473.959	2.83473
474.164	1.24579
474.369	1.52522
474.575	2.05795
474.78	1.75308
474.985	1.25034
475.19	0.77043
475.395	0.956
475.6	1.51133
475.804	2.22558
476.009	1.26855
476.214	1.61916
476.419	1.20353
476.624	0.50838
476.829	0.91311
477.034	1.64336
477.239	0.92812
477.444	1.53147
477.648	1.57697
477.853	1.81871
478.058	1.28053
478.263	1.09222
478.468	0.7258
478.672	0.83498
478.877	2.10918
479.082	2.42465
479.287	1.5322
479.491	1.34598
479.696	0.52604
479.901	1.90398
480.105	1.68923
480.31	1.05847
480.515	1.09535
480.719	2.51794
480.924	0.93452
481.128	0.65149
481.333	1.3148
481.538	1.50673
481.742	1.08352
481.947	1.47635
482.151	1.64969
482.356	1.14801
482.56	1.74857
482.765	1.6262
482.969	1.95176
483.174	2.25484
483.378	3.02753
483.582	2.57923
483.787	3.18227
483.991	2.77494
484.196	2.97893
484.4	2.85382
484.604	3.59304
484.809	2.56073
485.013	3.01395
485.217	2.60729
485.422	2.27373
485.626	2.09669
485.83	2.12143
486.034	1.99207
486.239	1.99737
486.443	1.9076
486.647	1.52163
486.851	2.19128
487.055	2.63565
487.26	1.77811
487.464	2.20683
487.668	1.61749
487.872	1.57015
488.076	2.33123
488.28	1.99641
488.484	1.86606
488.688	1.66934
488.892	2.27889
489.096	2.21797
489.3	1.84161
489.504	1.82358
489.708	2.21426
489.912	2.15105
490.116	2.11501
490.32	1.2046
490.524	2.0237
490.728	1.91092
490.932	1.74405
491.136	1.35213
491.34	2.4529
491.544	2.48553
491.748	2.06219
491.951	2.1431
492.155	1.82053
492.359	2.29039
492.563	1.43793
492.767	1.59572
492.97	1.69324
493.174	1.26788
493.378	1.5083
493.582	1.12307
493.785	1.36668
493.989	1.45772
494.193	1.50672
494.396	1.33407
494.6	1.77623
494.804	1.33888
495.007	0.98631
495.211	1.12348
495.414	1.43698
495.618	1.52064
495.822	2.1329
496.025	1.46677
496.229	2.05582
496.432	1.00523
496.636	1.48367
496.839	1.39261
497.043	2.60468
497.246	1.6896
497.45	1.27118
497.653	1.40169
497.856	1.72433
498.06	0.82905
498.263	1.30296
498.467	0.97139
498.67	2.05007
498.873	1.64849
499.077	1.30628
499.28	1.15386
499.483	1.70866
499.686	1.83399
499.89	1.776
500.093	1.9994
500.296	1.09006
500.499	2.37742
500.703	1.55306
500.906	1.77266
501.109	2.76516
501.312	1.57254
501.515	1.43418
501.719	1.81561
501.922	2.48428
502.125	1.90584
502.328	1.60046
502.531	0.88038
502.734	1.72973
502.937	0.62092
503.14	1.6424
503.343	0.97636
503.546	1.21022
503.749	1.23025
503.952	1.82833
504.155	0.98357
504.358	1.91704
504.561	1.69321
504.764	0.93031
504.967	1.52096
505.17	1.63392
505.373	2.48479
505.576	1.64194
505.778	2.06645
505.981	1.36408
506.184	2.20557
506.387	0.88495
506.59	2.7963
506.793	2.30334
506.995	1.82942
507.198	0.57296
507.401	1.66061
507.604	1.92634
507.806	1.10422
508.009	1.18867
508.212	1.87688
508.414	1.27756
508.617	1.08999
508.82	1.47997
509.022	2.20242
509.225	1.7695
509.427	0.68947
509.63	2.21874
509.833	1.44898
510.035	1.41591
510.238	0.69967
510.44	2.196
510.643	0.43188
510.845	3.00668
511.048	1.8594
511.25	1.32961
511.453	1.45321
511.655	1.73657
511.858	1.4015
512.06	1.97981
512.262	1.58937
512.465	2.0142
512.667	1.20479
512.869	1.06448
513.072	1.81294
513.274	2.14977
513.476	1.94373
513.679	2.18907
513.881	0.96688
514.083	2.6429
514.286	1.09939
514.488	1.40084
514.69	1.21898
514.892	0.9944
515.094	1.90148
515.297	1.47464
515.499	1.88888
515.701	1.10023
515.903	2.6709
516.105	2.47809
516.307	2.06048
516.509	0.63173
516.711	0.98014
516.913	1.65582
517.116	1.5007
517.318	1.31585
517.52	2.19147
517.722	1.9307
517.924	0.9576
518.126	1.90924
518.328	1.29297
518.529	2.1104
518.731	2.8542
518.933	1.27283
519.135	1.67724
519.337	2.37516
519.539	1.97619
519.741	0.7464
519.943	1.50441
520.145	1.46896
520.346	1.86985
520.548	1.4344
520.75	1.85981
520.952	1.46384
521.153	1.82094
521.355	2.07718
521.557	1.29049
521.759	1.97797
521.96	1.67321
522.162	1.1992
522.364	2.27854
522.565	1.34544
522.767	2.23952
522.969	2.52767
523.17	1.87501
523.372	1.98171
523.573	1.2624
523.775	1.48234
523.977	1.14749
524.178	2.6253
524.38	1.26774
524.581	2.04007
524.783	1.40531
524.984	2.14908
525.186	1.69521
525.387	2.20673
525.589	1.83599
525.79	1.61504
525.991	1.2445
526.193	2.23622
526.394	1.04783
526.596	2.10955
526.797	2.04741
526.998	1.75715
527.2	1.08712
527.401	2.60117
527.602	2.21757
527.803	3.53758
528.005	3.0675
528.206	3.45294
528.407	3.78265
528.608	3.2542
528.81	3.35645
529.011	2.74544
529.212	3.9449
529.413	3.3619
529.614	3.06667
529.815	3.3766
530.017	3.28547
530.218	2.72729
530.419	2.31767
530.62	2.36229
530.821	2.29396
531.022	1.43178
531.223	2.48833
531.424	2.54412
531.625	2.39101
531.826	2.18114
532.027	2.13349
532.228	3.09312
532.429	2.3324
532.63	2.27448
532.831	2.44133
533.032	2.56705
533.233	2.95717
533.433	2.68234
533.634	2.95014
533.835	2.40688
534.036	2.05667
534.237	2.36822
534.438	1.99298
534.638	1.79139
534.839	1.66291
535.04	2.40399
535.241	1.6651
535.441	2.76173
535.642	2.24762
535.843	1.26054
536.043	1.51808
536.244	1.76711
536.445	1.5795
536.645	2.63671
536.846	2.06801
537.047	2.76567
537.247	1.50661
537.448	1.9361
537.648	1.94488
537.849	1.84574
538.049	1.76262
538.25	2.17677
538.451	2.03563
538.651	1.44488
538.851	2.10149
539.052	2.49989
539.252	2.23
539.453	1.87303
539.653	1.77442
539.854	2.01735
540.054	1.93445
540.254	2.78749
540.455	2.91106
540.655	2.11021
540.855	2.79135
541.056	3.29074
541.256	2.63662
541.456	3.68014
541.657	2.67252
541.857	3.78544
542.057	2.32978
542.257	2.40724
542.458	3.16982
542.658	3.38971
542.858	2.01434
543.058	3.19427
543.258	2.63234
543.458	1.64533
543.659	1.46049
543.859	2.48518
544.059	2.37795
544.259	2.02711
544.459	2.39236
544.659	1.52228
544.859	2.18515
545.059	1.46705
545.259	2.17146
545.459	1.95642
545.659	2.34732
545.859	1.90778
546.059	2.07328
546.259	1.45912
546.459	1.08574
546.659	1.34925
546.859	2.20587
547.059	2.01082
547.258	2.0571
547.458	2.17796
547.658	1.29175
547.858	1.31042
548.058	2.16022
548.258	2.02048
548.457	1.47613
548.657	3.6832
548.857	1.76196
549.057	2.69917
549.256	2.49349
549.456	1.95967
549.656	1.02204
549.855	3.55313
550.055	2.08504
550.255	3.3982
550.454	2.76978
550.654	3.08311
550.853	3.29322
551.053	2.9131
551.253	2.68976
551.452	2.73718
551.652	1.56199
551.851	1.07247
552.051	1.91392
552.25	1.94825
552.45	1.66256
552.649	1.82829
552.849	1.59297
553.048	2.25642
553.248	2.41814
553.447	1.66728
553.646	2.82943
553.846	3.58542
554.045	3.17958
554.244	1.60844
554.444	3.58857
554.643	2.03987
554.842	3.42983
555.042	3.93826
555.241	2.16516
555.44	1.95014
555.64	2.7027
555.839	3.57688
556.038	2.76694
556.237	2.17224
556.436	2.42424
556.636	2.79759
556.835	1.8959
557.034	3.57165
557.233	2.55282
557.432	1.79487
557.631	3.39463
557.83	2.3295
558.029	2.22177
558.228	2.1853
558.427	1.82945
558.626	2.94469
558.825	2.04571
559.024	2.75939
559.223	3.99446
559.422	2.54069
559.621	3.03356
559.82	0.97384
560.019	2.84131
560.218	2.29079
560.417	0.25964
560.616	2.28685
560.815	4.99297
561.014	1.42475
561.212	3.40677
561.411	2.5102
561.61	1.32968
561.809	2.27009
562.008	3.64027
562.206	2.40107
562.405	2.865
562.604	2.31525
562.803	2.66988
563.001	2.66382
563.2	1.53235
563.399	3.12544
563.597	1.70991
563.796	2.897
563.995	1.28735
564.193	3.02654
564.392	2.18848
564.59	4.18693
564.789	0.94891
564.988	2.05033
565.186	2.50515
565.385	2.13657
565.583	2.03793
565.782	2.22913
565.98	1.99412
566.179	2.20323
566.377	1.22475
566.575	1.49835
566.774	3.01694
566.972	2.98635
567.171	3.61894
567.369	3.23543
567.567	2.37302
567.766	2.90845
567.964	1.09104
568.162	2.88688
568.361	3.2967
568.559	2.39456
568.757	2.79197
568.956	2.64907
569.154	2.40311
569.352	3.01277
569.55	2.53565
569.748	2.19421
569.947	1.81747
570.145	1.79093
570.343	1.68058
570.541	3.49356
570.739	1.21286
570.937	2.24371
571.135	2.4995
571.333	3.47855
571.532	3.47808
571.73	2.53647
571.928	3.1468
572.126	2.56499
572.324	1.82114
572.522	3.37083
572.72	4.11594
572.918	2.38583
573.116	2.53984
573.313	2.41415
573.511	2.20928
573.709	2.11193
573.907	2.65327
574.105	2.06638
574.303	1.13407
574.501	1.34891
574.699	2.46741
574.896	2.5534
575.094	2.7463
575.292	1.39982
575.49	3.00184
575.688	2.46019
575.885	3.39983
576.083	3.73812
576.281	2.79762
576.478	2.1244
576.676	2.88594
576.874	1.63993
577.071	2.23208
577.269	4.43406
577.467	2.37712
577.664	2.97567
577.862	3.32426
578.059	2.38505
578.257	3.53216
578.455	2.38247
578.652	2.77088
578.85	1.0862
579.047	2.84248
579.245	2.58281
579.442	2.84802
579.64	2.72238
579.837	1.14325
580.034	4.76343
580.232	2.54119
580.429	1.69966
580.627	3.50895
580.824	4.13728
581.021	3.05043
581.219	2.55826
581.416	2.11212
581.613	4.09671
581.811	4.09045
582.008	2.21753
582.205	3.51463
582.402	3.25833
582.6	4.9676
582.797	3.0936
582.994	3.57881
583.191	3.53804
583.388	3.07476
583.586	3.77074
583.783	4.19595
583.98	2.42144
584.177	3.25216
584.374	0.02663
584.571	2.97863
584.768	3.15053
584.965	2.40347
585.162	3.74398
585.359	4.59505
585.556	3.01052
585.753	3.35622
585.95	1.89467
586.147	2.82916
586.344	3.44512
586.541	2.77082
586.738	2.1192
586.935	3.22746
587.132	2.51005
587.329	4.11171
587.526	2.96885
587.722	7.87582
587.919	1.83573
588.116	3.27558
588.313	4.52172
588.51	5.15557
588.706	2.67388
588.903	3.42748
589.1	3.88592
589.297	5.94385
589.493	3.00936
589.69	3.66744
589.887	2.39692
590.083	1.76833
590.28	2.40424
590.477	3.87336
590.673	3.64172
590.87	4.21894
591.067	2.51361
591.263	3.73678
591.46	3.74812
591.656	3.24625
591.853	4.47127
592.049	2.28322
592.246	2.52033
592.442	4.47753
592.639	4.12907
592.835	1.72442
593.032	3.50374
593.228	1.87667
593.425	1.71327
593.621	1.81034
593.817	3.08149
594.014	2.33049
594.21	3.00549
594.406	3.98047
594.603	2.85771
594.799	2.51889
594.995	0.64224
595.192	3.85768
595.388	2.26007
595.584	2.3015
595.78	1.5015
595.977	4.94814
596.173	4.3364
596.369	2.63076
596.565	1.97888
596.761	1.35562
596.957	4.02296
597.154	1.74665
597.35	2.10925
597.546	2.00634
597.742	3.27416
597.938	2.94863
598.134	1.82898
598.33	2.90576
598.526	4.43792
598.722	3.62434
598.918	4.68449
599.114	3.686
599.31	2.50383
599.506	3.33538
599.702	2.73314
599.898	3.5655
600.094	4.40319
600.29	4.07697
600.485	3.63402
600.681	3.54093
600.877	4.8741
601.073	3.18223
601.269	5.68623
601.465	4.61047
601.66	2.18492
601.856	1.23134
602.052	4.87551
602.248	2.43818
602.443	0.90767
602.639	1.5441
602.835	2.44192
603.03	1.98897
603.226	3.62686
603.422	1.90712
603.617	2.41123
603.813	2.41015
604.009	1.94603
604.204	3.82827
604.4	1.04064
604.595	3.5499
604.791	1.63932
604.986	2.75185
605.182	1.69275
605.377	2.0067
605.573	2.09804
605.768	3.02841
605.964	3.4329
606.159	3.51315
606.355	4.38544
606.55	2.61118
606.746	4.01246
606.941	2.90884
607.136	5.4486
607.332	6.32853
607.527	1.67666
607.722	3.70634
607.918	2.86351
608.113	2.00353
608.308	3.63844
608.503	3.65094
608.699	3.27152
608.894	3.43522
609.089	2.05171
609.284	2.92133
609.479	2.1203
609.675	3.21033
609.87	2.30798
610.065	3.399
610.26	3.85939
610.455	3.71673
610.65	2.86751
610.845	3.35655
611.04	3.77048
611.235	2.89986
611.43	2.9726
611.625	1.6893
611.82	4.72549
612.015	2.26626
612.21	5.2256
612.405	1.62439
612.6	5.94509
612.795	5.0692
612.99	4.76193
613.185	2.39857
613.38	2.62527
613.575	3.73478
613.77	6.68165
613.965	1.736
614.159	2.17836
614.354	5.29817
614.549	5.15981
614.744	4.12327
614.938	2.57653
615.133	2.58099
615.328	5.18956
615.523	4.58773
615.717	7.18344
615.912	3.21854
616.107	3.69765
616.301	2.98066
616.496	2.76715
616.691	6.0214
616.885	4.52811
617.08	6.66578
617.274	5.47606
617.469	6.77099
617.664	4.42005
617.858	2.9417
618.053	4.07164
618.247	3.54935
618.442	0.69475
618.636	5.51189
618.831	3.54098
619.025	3.26904
619.219	7.3466
619.414	0.03905
619.608	3.92636
619.803	2.49474
619.997	6.49523
620.191	5.32853
620.386	4.399
620.58	4.1486
620.774	1.70406
620.969	1.6262
621.163	3.8907
621.357	2.05868
621.551	3.50702
621.746	4.03548
621.94	4.29177
622.134	8.88891
622.328	6.69796
622.522	2.32035
622.716	5.85386
622.911	5.05072
623.105	4.96028
623.299	3.78584
623.493	8.77989
623.687	2.55151
623.881	3.80032
624.075	4.81402
624.269	5.27313
624.463	1.71982
624.657	1.76148
624.851	4.84253
625.045	5.2188
625.239	5.13758
625.433	2.533
625.627	5.96834
625.821	2.59608
626.015	2.66733
626.209	3.55146
626.403	1.12603
626.596	3.88711
626.79	4.5115
626.984	2.01543
627.178	4.02894
627.372	4.35152
627.565	4.83148
627.759	1.70028
627.953	1.53932
628.147	4.26981
628.34	4.60684
628.534	6.27479
628.728	3.34322
628.921	5.16078
629.115	5.10782
629.309	4.88754
629.502	5.71654
629.696	4.44432
629.89	3.86323
630.083	4.18901
630.277	4.73029
630.47	6.69664
630.664	3.7247
630.857	2.37617
631.051	5.6064
631.244	6.0626
631.438	5.60587
631.631	3.16543
631.825	6.2638
632.018	5.57037
632.212	6.87652
632.405	5.967
632.598	3.33087
632.792	4.1914
632.985	1.18446
633.178	3.42528
633.372	4.17891
633.565	4.03754
633.758	6.52855
633.952	2.6389
634.145	3.34261
634.338	4.07415
634.531	3.88202
634.724	3.2659
634.918	4.7164
635.111	3.78458
635.304	3.25972
635.497	7.4627
635.69	4.73506
635.883	6.05687
636.077	2.56314
636.27	5.25415
636.463	5.1391
636.656	5.25872
636.849	3.20258
637.042	5.31581
637.235	7.81399
637.428	5.71294
637.621	5.84721
637.814	7.34135
638.007	7.2057
638.2	7.78499
638.393	7.93736
638.586	3.04402
638.778	3.87077
638.971	5.34463
639.164	7.88546
639.357	6.24866
639.55	7.28394
639.743	6.02332
639.935	6.57288
640.128	8.83238
640.321	6.15625
640.514	5.5931
640.707	10.35897
640.899	6.21776
641.092	2.65223
641.285	18.71533
641.477	1.62279
641.67	8.95971
641.863	7.62276
642.055	5.60269
642.248	5.67622
642.441	4.56276
642.633	6.51422
642.826	7.53937
643.018	7.49452
643.211	8.90254
643.403	8.86345
643.596	9.68747
643.788	9.89263
643.981	4.88817
644.173	6.76379
644.366	4.96372
644.558	2.63596
644.751	7.25609
644.943	3.5299
645.135	9.66012
645.328	9.5755
645.52	7.61221
645.712	7.40213
645.905	12.73841
646.097	3.96394
646.289	7.04464
646.482	9.78235
646.674	4.81618
646.866	7.90451
647.058	6.42368
647.251	4.26768
647.443	4.53867
647.635	5.33455
647.827	4.78538
648.019	4.38179
648.211	6.65589
648.404	7.02734
648.596	9.10941
648.788	7.21364
648.98	6.26251
649.172	7.12391
649.364	6.94766
649.556	2.83134
649.748	10.22974
649.94	4.95786
650.132	6.62866
650.324	4.4792
650.516	4.47752
650.708	8.1041
650.9	3.06555
651.092	5.28989
651.284	2.90077
651.476	3.61447
651.667	6.86495
651.859	8.56021
652.051	6.00713
652.243	6.39418
652.435	4.99835
652.627	7.05761
652.818	6.18508
653.01	2.99767
653.202	4.60924
653.394	5.35782
653.585	6.83344
653.777	15.53537
653.969	9.19274
654.16	8.31201
654.352	4.70306
654.544	5.19432
654.735	9.05476
654.927	6.44401
655.118	9.45158
655.31	8.26834
655.502	7.96986
655.693	4.8824
655.885	7.84895
656.076	10.09301
656.268	6.48142
656.459	9.27844
656.651	9.55106
656.842	5.51763
657.034	4.98932
657.225	7.88453
657.416	9.08589
657.608	8.7215
657.799	5.85472
657.99	7.76183
658.182	4.30976
658.373	4.46381
658.564	7.71331
658.756	5.4094
658.947	5.51943
659.138	3.82275
659.33	4.52765
659.521	3.71751
659.712	5.29931
659.903	5.24909
660.094	4.29013
660.286	2.92855
660.477	9.29018
660.668	7.04358
660.859	5.97807
661.05	2.93739
661.241	7.67875
661.432	6.99402
661.623	6.34513
661.814	5.56425
662.006	2.76241
662.197	6.90455
662.388	8.65879
662.579	7.10449
662.77	9.51805
662.96	13.46631
663.151	9.40012
663.342	3.05689
663.533	7.58971
663.724	6.28167
663.915	10.67803
664.106	6.79301
664.297	11.4452
664.488	8.99394
664.678	6.47542
664.869	8.15979
665.06	9.63573
665.251	7.7497
665.442	8.60327
665.632	4.7908
665.823	12.6206
666.014	1.12426
666.204	9.14154
666.395	9.77536
666.586	14.65325
666.776	9.73553
666.967	11.28398
667.158	7.23338
667.348	11.46661
667.539	4.62743
667.729	9.60171
667.92	5.08367
668.111	9.73056
668.301	9.09728
668.492	6.3553
668.682	7.06763
668.873	6.96127
669.063	4.45832
669.253	7.02277
669.444	9.96619
669.634	6.7206
669.825	11.90638
670.015	8.4592
670.206	5.3136
670.396	13.5567
670.586	7.51312
670.777	8.32846
670.967	2.62721
671.157	7.60923
671.347	6.24356
671.538	11.77123
671.728	9.63918
671.918	12.0576
672.108	9.31437
672.299	7.70585
672.489	8.50525
672.679	6.03085
672.869	8.91134
673.059	11.89859
673.249	9.27516
673.44	5.37685
673.63	6.71987
673.82	10.68256
674.01	5.47304
674.2	9.95613
674.39	15.86894
674.58	9.56332
674.77	8.89254
674.96	8.70239
675.15	19.57235
675.34	10.91365
675.53	8.58033
675.72	6.85574
675.91	5.27398
676.099	12.36852
676.289	14.63263
676.479	10.3988
676.669	6.66963
676.859	9.6953
677.049	5.4986
677.238	8.458
677.428	12.76709
677.618	9.36268
677.808	11.39161
677.997	9.7261
678.187	5.10486
678.377	7.98946
678.567	6.07572
678.756	6.71199
678.946	6.16083
679.136	4.29665
679.325	5.28645
679.515	5.64445
679.704	3.90641
679.894	8.97796
680.084	7.72822
680.273	10.69303
680.463	4.67185
680.652	4.92545
680.842	7.05978
681.031	9.44752
681.221	4.61469
681.41	8.23755
681.6	6.65819
681.789	9.95034
681.978	10.55272
682.168	8.62653
682.357	8.62963
682.547	10.24214
682.736	8.72681
682.925	11.46409
683.115	11.42165
683.304	10.53199
683.493	9.1137
683.682	9.18401
683.872	9.90955
684.061	12.6296
684.25	10.29927
684.439	14.6845
684.629	10.1095
684.818	19.09622
685.007	8.77014
685.196	8.20656
685.385	13.13951
685.574	10.30057
685.763	9.47935
685.952	9.69407
686.142	5.7418
686.331	12.99502
686.52	3.71491
686.709	13.651
686.898	14.57156
687.087	10.77466
687.276	13.70953
687.465	12.3392
687.654	8.00589
687.842	14.30307
688.031	4.98972
688.22	13.13232
688.409	10.20148
688.598	10.16047
688.787	16.99536
688.976	9.6391
689.165	16.01375
689.353	8.32211
689.542	11.80534
689.731	12.27347
689.92	15.91641
690.108	12.79838
690.297	9.46271
690.486	10.66044
690.675	12.27349
690.863	16.55385
691.052	14.79525
691.241	10.84008
691.429	10.92347
691.618	15.005
691.806	5.73736
691.995	9.58462
692.184	10.30308
692.372	7.90279
692.561	10.9323
692.749	11.46141
692.938	19.4022
693.126	13.09647
693.315	10.71078
693.503	12.63222
693.692	12.62883
693.88	14.03913
694.068	18.18664
694.257	10.10948
694.445	12.0695
694.634	4.58153
694.822	15.22667
695.01	15.35058
695.199	16.72026
695.387	16.21263
695.575	14.95757
695.763	10.87885
695.952	9.56443
696.14	5.18452
696.328	8.90515
696.516	11.09183
696.705	10.86371
696.893	11.47942
697.081	4.46856
697.269	12.93405
697.457	7.10759
697.645	6.40522
697.833	12.25957
698.021	7.14957
698.21	7.66259
698.398	8.79757
698.586	5.50877
698.774	5.45159
698.962	8.35847
699.15	5.45756
699.338	4.21863
699.526	9.84887
699.714	7.22479
699.901	6.78059
700.089	12.10647
700.277	6.46135
700.465	8.38299
700.653	12.44818
700.841	11.19211
701.029	7.43961
701.217	14.50775
701.404	10.57153
701.592	14.52871
701.78	18.14429
701.968	9.11094
702.155	10.34724
702.343	5.79484
702.531	15.71909
702.718	13.35933
702.906	11.37052
703.094	8.24147
703.281	16.43918
703.469	10.58083
703.657	16.58084
703.844	24.307
704.032	17.707
704.219	10.34278
704.407	13.5091
704.595	17.32261
704.782	13.85143
704.97	10.75579
705.157	10.81282
705.345	17.84392
705.532	22.53525
705.719	14.42274
705.907	18.27162
706.094	13.58129
706.282	19.25855
706.469	11.19253
706.656	13.11217
706.844	11.76196
707.031	16.11809
707.218	13.23191
707.406	19.21213
707.593	15.83975
707.78	15.7264
707.968	12.53043
708.155	8.31397
708.342	14.49374
708.529	15.81122
708.716	13.58126
708.904	20.12987
709.091	15.33922
709.278	7.87599
709.465	18.96686
709.652	19.6315
709.839	17.42399
710.026	15.09323
710.213	6.68037
710.4	13.88639
710.587	17.58718
710.774	18.65159
710.961	18.18292
711.148	13.59283
711.335	18.74604
711.522	13.12992
711.709	14.78362
711.896	22.30242
712.083	17.7062
712.27	9.87607
712.457	15.10744
712.644	7.80372
712.831	22.99452
713.017	14.01795
713.204	17.4361
713.391	11.2622
713.578	19.93159
713.765	20.42647
713.951	17.26334
714.138	28.78516
714.325	17.65765
714.512	13.68303
714.698	11.12308
714.885	22.18729
715.072	17.31569
715.258	15.9069
715.445	12.64307
715.631	20.17117
715.818	4.08103
716.005	11.90128
716.191	17.91657
716.378	13.55855
716.564	18.70869
716.751	11.61295
716.937	13.09507
717.124	21.22213
717.31	12.69204
717.497	23.4167
717.683	11.65265
717.869	25.85145
718.056	13.63984
718.242	18.79968
718.429	16.98369
718.615	10.48846
718.801	16.06674
718.988	20.61501
719.174	17.54476
719.36	15.51314
719.547	22.02984
719.733	18.83572
719.919	19.8942
720.105	19.63943
720.291	16.06462
720.478	18.63898
720.664	15.59037
720.85	13.8471
721.036	32.25173
721.222	25.41291
721.408	15.70176
721.595	28.83178
721.781	26.59295
721.967	24.59502
722.153	25.87655
722.339	21.20362
722.525	19.45503
722.711	11.62022
722.897	10.94326
723.083	16.20893
723.269	23.23469
723.455	33.08616
723.641	33.7805
723.827	19.2083
724.012	20.90174
724.198	17.23837
724.384	25.23769
724.57	19.91082
724.756	9.48819
724.942	7.10706
725.127	23.23901
725.313	25.55956
725.499	26.3921
725.685	28.82749
725.87	19.53563
726.056	13.62419
726.242	26.37943
726.428	10.80298
726.613	23.08939
726.799	16.99855
726.985	12.14503
727.17	10.96742
727.356	29.29489
727.541	14.42483
727.727	17.64157
727.913	22.94505
728.098	15.66053
728.284	22.55778
728.469	11.22713
728.655	14.00709
728.84	23.10908
729.026	22.23046
729.211	24.07768
729.397	20.69509
729.582	21.47656
729.767	16.63802
729.953	20.34391
730.138	24.74036
730.323	7.2031
730.509	11.23544
730.694	26.92599
730.879	21.38042
731.065	20.13452
731.25	32.3014
731.435	21.90927
731.621	10.90309
731.806	15.74082
731.991	21.12197
732.176	10.83562
732.361	26.44724
732.547	21.92623
732.732	9.31595
732.917	33.47565
733.102	11.9187
733.287	15.15296
733.472	18.53177
733.657	19.77364
733.842	11.82065
734.027	17.45468
734.212	17.8223
734.397	14.81707
734.582	18.64139
734.767	23.0281
734.952	26.78313
735.137	5.41791
735.322	27.79977
735.507	19.72865
735.692	20.60547
735.877	33.20285
736.062	31.34539
736.247	20.83188
736.431	17.93806
736.616	28.1771
736.801	22.48473
736.986	20.41151
737.171	15.63855
737.355	9.83676
737.54	28.26878
737.725	20.36347
737.909	39.43927
738.094	17.10391
738.279	25.39726
738.463	19.12167
738.648	24.49553
738.833	22.96285
739.017	33.9439
739.202	19.09418
739.386	20.53798
739.571	14.15623
739.756	25.93816
739.94	23.07496
740.125	26.94141
740.309	15.72791
740.494	25.54804
740.678	19.87849
740.863	24.0024
741.047	22.52752
741.231	27.85639
741.416	16.4666
741.6	31.11462
741.785	15.42907
741.969	26.82673
742.153	29.39264
742.338	6.29762
742.522	20.87612
742.706	26.75096
742.89	12.31911
743.075	23.1233
743.259	32.24806
743.443	28.9853
743.627	30.34937
743.812	39.05589
743.996	6.83819
744.18	21.69467
744.364	18.23174
744.548	40.8142
744.732	22.08266
744.916	27.39031
745.1	26.10601
745.285	21.61657
745.469	26.29626
745.653	37.59993
745.837	13.31413
746.021	38.69577
746.205	31.94724
746.389	25.51281
746.573	19.22011
746.757	34.84595
746.94	19.35402
747.124	29.4011
747.308	12.88546
747.492	31.00085
747.676	19.98188
747.86	40.49283
748.044	22.58822
748.227	12.09706
748.411	51.21074
748.595	25.74475
748.779	17.63452
748.963	26.33973
749.146	24.71707
749.33	16.60246
749.514	15.42993
749.697	31.54699
749.881	17.77477
750.065	15.03612
750.248	23.91639
750.432	42.28325
750.616	25.24497
750.799	12.9737
750.983	40.75635
751.166	47.35454
751.35	11.43765
751.533	30.18057
751.717	32.53317
751.9	36.17679
752.084	20.39835
752.267	14.65643
752.451	16.80059
752.634	25.81316
752.818	25.79943
753.001	30.10114
753.184	31.1802
753.368	25.67671
753.551	1.49868
753.734	17.72611
753.918	40.88411
754.101	19.0527
754.284	30.16323
754.467	21.97471
754.651	17.62633
754.834	16.63425
755.017	33.17992
755.2	32.39456
755.384	12.59202
755.567	31.53481
755.75	33.72835
755.933	20.8548
756.116	27.14637
756.299	19.01124
756.482	14.02183
756.665	28.93433
756.848	26.91764
757.032	28.35444
757.215	12.82395
757.398	18.80483
757.581	15.05127
757.764	45.68764
757.947	25.82124
758.129	34.83638
758.312	1.16709
758.495	22.88706
758.678	21.61938
758.861	24.35453
759.044	42.84897
759.227	20.12089
759.41	17.01581
759.592	29.21751
759.775	25.63349
759.958	31.13395
760.141	11.84255
760.324	40.21609
760.506	38.51926
760.689	30.1728
760.872	45.3456
761.054	27.95007
761.237	20.03082
761.42	29.27768
761.602	32.59125
761.785	29.00942
761.968	31.74962
762.15	40.3527
762.333	24.56333
762.515	27.14768
762.698	18.27379
762.88	28.56444
763.063	27.08151
763.245	29.2724
763.428	17.06063
763.61	16.25204
763.793	14.04969
763.975	24.27423
764.158	18.85266
764.34	18.30591
764.522	14.86508
764.705	19.02821
764.887	33.50906
765.069	12.02987
765.252	28.85598
765.434	29.81448
765.616	23.55376
765.799	17.99433
765.981	30.63082
766.163	16.2302
766.345	31.16153
766.528	19.77209
766.71	5.86203
766.892	27.18382
767.074	33.70838
767.256	21.9733
767.438	39.90473
767.62	28.29886
767.802	45.75831
767.985	34.6846
768.167	42.70975
768.349	19.81982
768.531	33.11688
768.713	25.59552
768.895	37.00415
769.077	31.54869
769.259	52.49544
769.441	74.32622
769.623	39.13205
769.804	43.29375
769.986	41.79707
770.168	57.25802
770.35	64.66312
770.532	47.55626
770.714	51.39627
770.896	54.09416
771.077	19.38468
771.259	54.63247
771.441	46.89309
771.623	57.23148
771.804	77.51454
771.986	18.65008
772.168	38.03078
772.35	59.20133
772.531	80.51242
772.713	49.03601
772.894	58.50391
773.076	41.82621
773.258	36.01949
773.439	60.34541
773.621	65.84096
773.802	25.01155
773.984	40.83459
774.166	49.65754
774.347	73.0769
774.529	54.70848
774.71	14.51066
774.891	39.34731
775.073	42.03619
775.254	68.95174
775.436	36.17534
775.617	66.75184
775.799	38.92755
775.98	70.14847
776.161	73.09742
776.343	66.84705
776.524	44.30706
776.705	37.71103
776.886	20.45071
777.068	43.16495
777.249	83.99621
777.43	78.45267
777.611	27.65285
777.793	42.68616
777.974	73.07597
778.155	40.03172
778.336	31.27059
778.517	75.8826
778.698	34.81906
778.879	14.53394
779.061	2.93195
779.242	51.72608
779.423	51.25275
779.604	35.43126
779.785	39.52736
779.966	51.82038
780.147	60.49189
780.328	59.49487
780.509	89.5575
780.69	54.65755
780.871	37.60965
781.051	19.63561
781.232	48.34477
781.413	47.93629
781.594	36.10952
781.775	35.23782
781.956	38.11156
782.137	15.38793
782.317	33.81638
782.498	49.6247
782.679	47.07157
782.86	45.92553
783.04	33.62685
783.221	50.93547
783.402	81.82724
783.583	43.36009
783.763	57.5568
783.944	37.57505
784.124	20.68201
784.305	73.14213
784.486	56.25646
784.666	39.68518
784.847	18.08349
785.027	90.54905
785.208	29.32788
785.388	28.82067
785.569	33.56051
785.749	34.32589
785.93	35.5098
786.11	23.20525
786.291	46.78377
786.471	46.48711
786.652	55.27567
786.832	43.41663
787.012	52.68174
787.193	26.10159
787.373	45.21087
787.553	34.61986
787.734	44.93517
787.914	36.72929
788.094	49.79703
788.275	45.65192
788.455	35.86678
788.635	25.2976
788.815	47.45756
788.995	26.04434
789.176	21.86595
789.356	28.43037
789.536	39.6797
789.716	47.51134
789.896	30.64554
790.076	36.92383
790.256	44.50267
790.436	13.24797
790.616	26.87956
790.796	48.51354
790.976	37.00734
791.156	35.46114
791.336	55.58719
791.516	48.35229
791.696	41.89675
791.876	22.72776
792.056	42.58037
792.236	61.7804
792.416	56.17198
792.596	55.9926
792.776	50.46635
792.956	52.31097
793.135	70.74512
793.315	25.14551
793.495	66.59993
793.675	49.31558
793.854	57.74258
794.034	60.10585
794.214	24.30725
794.394	56.6573
794.573	63.41735
794.753	44.67157
794.933	33.61599
795.112	43.81708
795.292	57.18258
795.472	70.82856
795.651	26.09653
795.831	44.27362
796.01	35.24229
796.19	39.88789
796.369	38.37453
796.549	48.85842
796.728	40.82024
796.908	24.12926
797.087	29.12334
797.267	43.16908
797.446	26.65777
797.626	47.25921
797.805	50.38145
797.984	30.95685
798.164	51.47332
798.343	33.80805
798.522	47.87036
798.702	44.07242
798.881	24.41411
799.06	34.08848
799.239	12.26795
799.419	28.79716
799.598	66.82431
799.777	53.11768
799.956	59.13283
800.136	40.42874
800.315	33.18965
800.494	47.0215
800.673	55.53846
800.852	55.72063
801.031	66.42974
801.21	53.4994
801.389	29.6874
801.568	51.01893
801.747	75.61965
801.926	41.28466
802.105	69.33317
802.284	41.04598
802.463	67.54504
802.642	47.68078
802.821	47.01807
803	67.7863
803.179	56.41442
803.358	60.87615
803.537	34.64493
803.716	51.66298
803.895	31.95304
804.073	41.66425
804.252	36.37375
804.431	52.96033
804.61	43.56095
804.789	67.87854
804.967	37.14665
805.146	33.53733
805.325	80.07525
805.503	49.76097
805.682	22.52025
805.861	88.37943
806.039	67.88297
806.218	31.32929
806.397	49.85593
806.575	46.57527
806.754	47.36941
806.932	31.44131
807.111	74.85327
807.289	59.18879
807.468	48.32687
807.646	61.6507
807.825	48.90871
808.003	49.00017
808.182	62.98515
808.36	47.48487
808.539	33.00724
808.717	74.71344
808.895	34.47769
809.074	52.36345
809.252	43.87309
809.43	61.52634
809.609	69.55068
809.787	82.82137
809.965	44.25891
810.144	46.568
810.322	39.20325
810.5	56.61406
810.678	43.6839
810.856	91.76803
811.035	65.83551
811.213	66.86061
811.391	63.08027
811.569	52.87466
811.747	106.38999
811.925	71.26858
812.103	41.64726
812.281	42.01622
812.459	88.188
812.637	85.99303
812.816	71.30162
812.994	93.67554
813.171	71.81903
813.349	65.25039
813.527	75.03825
813.705	68.05148
813.883	94.45373
814.061	72.48426
814.239	91.04028
814.417	99.80022
814.595	64.48181
814.773	60.34309
814.95	55.45121
815.128	69.76433
815.306	47.83569
815.484	47.82529
815.662	41.00181
815.839	29.37038
816.017	41.79031
816.195	70.89811
816.372	49.06338
816.55	67.2051
816.728	82.97673
816.905	54.36791
817.083	80.1625
817.261	57.29218
817.438	101.5179
817.616	91.01979
817.793	43.90013
817.971	69.75752
818.148	62.66479
818.326	77.68249
818.503	62.20667
818.681	76.1846
818.858	44.3881
819.036	54.17679
819.213	56.61421
819.391	39.49196
819.568	36.35144
819.745	33.26712
819.923	61.76635
820.1	38.33223
820.277	33.56406
820.455	40.63377
820.632	43.77758
820.809	44.73862
820.986	25.58459
821.164	21.95504
821.341	17.11273
821.518	25.1485
821.695	19.10088
821.872	16.69729
822.05	14.17012
822.227	9.84561
822.404	11.0219
822.581	12.33396
822.758	10.35242
822.935	10.88011
823.112	13.19199
823.289	10.20245
823.466	13.24523
823.643	11.89866
823.82	15.88031
823.997	13.72948
824.174	18.13844
824.351	24.38142
824.528	23.37569
824.705	20.08417
824.882	23.69422
825.059	31.8949
825.236	20.77712
825.412	22.04544
825.589	28.4989
825.766	41.04669
825.943	24.59584
826.12	30.09282
826.296	17.81856
826.473	25.3692
826.65	25.39527
826.827	31.68013
827.003	20.34813
827.18	22.59316
827.357	25.60384
827.533	21.81059
827.71	10.18978
827.887	17.86183
828.063	22.38776
828.24	18.65824
828.416	27.73223
828.593	20.74492
828.769	32.77594
828.946	37.44426
829.122	39.70557
829.299	40.89724
829.475	17.03426
829.652	34.93737
829.828	64.27295
830.005	39.82211
830.181	53.09474
830.357	33.89674
830.534	58.65013
830.71	42.02585
830.886	59.59914
831.063	50.7592
831.239	72.07542
831.415	34.3524
831.592	79.30636
831.768	42.90794
831.944	34.56966
832.12	77.01588
832.296	67.53934
832.473	58.55193
832.649	37.88463
832.825	53.97145
833.001	30.02438
833.177	46.045
833.353	43.87408
833.529	21.70437
833.705	33.86548
833.881	23.10897
834.058	21.8897
834.234	24.02209
834.41	24.57851
834.586	19.60486
834.761	23.01873
834.937	26.38398
835.113	27.70902
835.289	25.94584
835.465	30.15623
835.641	27.3395
835.817	31.755
835.993	59.14478
836.169	24.80069
836.344	40.12023
836.52	51.5048
836.696	53.84573
836.872	31.29172
837.048	113.6987
837.223	38.84418
837.399	100.13834
837.575	72.09113
837.75	66.95152
837.926	96.24932
838.102	145.16239
838.277	113.73497
838.453	158.96434
838.628	151.80918
838.804	50.98875
838.98	147.96288
839.155	67.69872
839.331	95.70671
839.506	71.91318
839.682	62.86309
839.857	77.94771
840.033	99.48679
840.208	38.21778
840.384	23.81842
840.559	49.14513
840.734	71.08141
840.91	101.25287
841.085	64.28495
841.26	62.57981
841.436	60.1036
841.611	50.72475
841.786	86.14169
841.962	121.09089
842.137	82.03952
842.312	34.87012
842.487	62.26045
842.663	65.53948
842.838	72.75595
843.013	259.09821
843.188	119.98877
843.363	106.97934
843.538	220.40474
843.714	239.00436
843.889	230.80687
844.064	189.42814
844.239	155.62286
844.414	255.58261
844.589	159.63667
844.764	263.50374
844.939	271.77155
845.114	259.50373
845.289	321.08373
845.464	355.31273
845.639	254.86805
845.814	151.86795
845.989	203.58877
846.163	192.50049
846.338	245.28706
846.513	312.54897
846.688	215.7759
846.863	219.26876
847.038	149.74525
847.212	212.26151
847.387	224.42361
847.562	217.88903
847.737	315.488
847.911	132.11031
848.086	154.84206
848.261	340.76304
848.435	180.70343
848.61	288.23635
848.785	173.51527
848.959	308.73081
849.134	300.39165
849.308	610.58089
849.483	228.89368
849.658	362.50205
849.832	179.42515
850.007	120.01656
850.181	487.43201
850.356	235.68857
850.53	425.62347
850.705	127.96246
850.879	110.19731
851.053	188.08359
851.228	221.51382
851.402	336.28912
851.577	301.10393
851.751	395.46736
851.925	190.1991
852.099	78.92248
852.274	159.50042
852.448	217.83921
852.622	300.66422
852.797	219.93721
852.971	246.35598
853.145	250.1586
853.319	461.99993
853.493	428.64364
853.668	248.8731
853.842	521.02773
854.016	376.35479
854.19	462.23736
854.364	224.61792
854.538	315.97897
854.712	311.67866
854.886	208.00163
855.06	215.49908
855.234	63.23664
855.408	366.90561
855.582	322.35871
855.756	500.66933
855.93	372.26381
856.104	322.31954
856.278	329.76989
856.452	219.62825
856.626	256.19018
856.8	463.05238
856.973	370.87976
857.147	359.06046
857.321	337.71101
857.495	330.76963
857.669	285.13498
857.842	285.41379
858.016	388.79971
858.19	158.43445
858.364	505.48966
858.537	224.1858
858.711	335.11305
858.885	253.49373
859.058	163.65172
859.232	130.08164
859.405	115.93156
859.579	322.72154
859.753	394.25822
859.926	192.20494
860.1	132.1042
860.273	297.45837
860.447	394.11014
860.62	210.82173
860.794	497.84629
860.967	250.25218
861.141	301.70763
861.314	493.13413
861.487	302.26631
861.661	366.19859
861.834	582.6625
862.008	323.72002
862.181	325.3965
862.354	277.82414
862.528	412.30021
862.701	225.28563
862.874	142.23524
863.047	214.17566
863.221	191.15169
863.394	96.93465
863.567	292.59485
863.74	84.31784
863.913	326.51666
864.087	320.79759
864.26	354.99121
864.433	246.94347
864.606	484.07903
864.779	302.16234
864.952	116.91881
865.125	293.79627
865.298	297.68986
865.471	278.2617
865.644	454.13881
865.817	344.12872
865.99	385.81808
866.163	411.55511
866.336	174.26314
866.509	287.9415
866.682	277.20817
866.855	436.02031
867.028	118.03903
867.2	271.3925
867.373	69.14267
867.546	247.27348
867.719	491.32931
867.892	334.00477
868.064	168.64137
868.237	253.33405
868.41	256.28494
868.583	159.62332
868.755	156.06438
868.928	215.76949
869.101	547.67052
869.273	395.96074
869.446	286.21334
869.619	409.20346
869.791	360.10809
869.964	403.16546
870.136	445.80253
870.309	219.45991
870.481	268.86399
870.654	116.54238
870.826	226.95024
870.999	207.80542
871.171	379.28786
871.344	173.4764
871.516	210.74607
871.689	175.14168
871.861	267.42009
872.033	166.40842
872.206	244.35951
872.378	267.67137
872.55	250.02787
872.723	139.02645
872.895	222.13437
873.067	340.97491
873.24	275.26639
873.412	193.5164
873.584	228.47039
873.756	222.2168
873.928	258.35854
874.101	241.67151
874.273	269.52752
874.445	100.84331
874.617	130.04881
874.789	217.84656
874.961	202.86806
875.133	270.21842
875.305	243.99247
875.477	151.32978
875.649	114.12495
875.821	149.97456
875.993	337.27549
876.165	208.28179
876.337	250.00401
876.509	230.62543
876.681	239.61348
876.853	227.73893
877.025	264.84873
877.197	164.81679
877.369	147.45634
877.541	273.66002
877.712	62.53859
877.884	128.22402
878.056	240.58807
878.228	129.50288
878.4	262.5232
878.571	131.18658
878.743	85.80606
878.915	190.50382
879.086	102.21259
879.258	132.15472
879.43	113.77972
879.601	106.84784
879.773	99.57154
879.945	18.97014
880.116	39.05786
880.288	22.43096
880.459	25.67159
880.631	17.95516
880.802	22.38319
880.974	21.28175
881.145	12.89278
881.317	19.33027
881.488	14.70324
881.66	16.18795
881.831	14.84939
882.002	20.74542
882.174	14.84598
882.345	19.98122
882.517	8.61787
882.688	24.72981
882.859	18.37981
883.03	33.72064
883.202	33.22386
883.373	25.41863
883.544	28.43485
883.715	49.00615
883.887	40.4289
884.058	33.00696
884.229	50.90333
884.4	50.72592
884.571	61.0657
884.742	50.03747
884.914	56.68227
885.085	84.88674
885.256	117.64917
885.427	94.84469
885.598	114.4343
885.769	116.23307
885.94	114.75137
886.111	64.7015
886.282	130.64238
886.453	116.74905
886.624	84.02876
886.795	150.38323
886.966	123.04495
887.136	159.30727
887.307	100.37824
887.478	213.28418
887.649	192.45024
887.82	198.04292
887.991	150.52256
888.161	233.80437
888.332	209.92553
888.503	117.90685
888.674	294.45376
888.844	354.52433
889.015	333.97861
889.186	159.50451
889.356	315.12681
889.527	138.56073
889.698	519.64989
889.868	200.57921
890.039	303.29956
890.209	213.67589
890.38	271.80837
890.551	265.03123
890.721	360.60743
890.892	340.86798
891.062	315.45279
891.233	324.39444
891.403	273.98594
891.574	168.97762
891.744	189.54768
891.914	235.61106
892.085	354.24537
892.255	75.35335
892.425	317.86728
892.596	205.35827
892.766	289.68524
892.936	398.24155
893.107	253.69428
893.277	121.70669
893.447	113.10621
893.618	63.42907
893.788	149.68349
893.958	93.37387
894.128	67.6208
894.298	87.95641
894.468	102.92854
894.639	51.75502
894.809	24.85036
894.979	55.13988
895.149	63.69014
895.319	44.47348
895.489	76.75893
895.659	98.5161
895.829	60.69632
895.999	61.59989
896.169	54.12615
896.339	64.88233
896.509	125.81174
896.679	152.83985
896.849	169.70549
897.019	242.13264
897.189	228.65598
897.358	161.43616
897.528	301.30467
897.698	139.91506
897.868	278.12255
898.038	551.59523
898.208	482.47269
898.377	160.57436
898.547	796.75107
898.717	828.11196
898.886	328.47527
899.056	577.33147
899.226	882.86971
899.395	658.70342
899.565	764.83874
899.735	439.83768
899.904	613.34568
900.074	851.64763
900.244	278.94523
900.413	1668.95043
900.583	352.49318
900.752	3551.77596
900.922	631.38081
901.091	110.73099
901.261	732.26533
901.43	507.79493
901.599	706.7376
901.769	1455.83389
901.938	723.94262
902.108	636.3782
902.277	751.63676
902.446	237.30629
902.616	329.35163
902.785	395.20244
902.954	528.66275
903.124	289.4412
903.293	208.00538
903.462	94.12652
903.631	152.47935
903.801	100.12629
903.97	45.57732
904.139	82.60909
904.308	63.29111
904.477	56.62306
904.646	29.67047
904.816	46.46416
904.985	73.0052
905.154	104.6075
