Data from WindowProjectSample_Transmission__76__00076.txt Node

Date: Mon May 05 18:47:30 EDT 2025
User: jessi
Spectrometer: SR400872
Trigger mode: 0
Integration Time (sec): 5.000010E-1
Scans to average: 20
Electric dark correction enabled: true
Nonlinearity correction enabled: true
Boxcar width: 0
XAxis mode: Wavelengths
Number of Pixels in Spectrum: 3648
>>>>>Begin Spectral Data<<<<<
184.909	21938.71793
185.132	-5206.08896
185.355	-3176.38341
185.578	-19067.5525
185.801	1338.11626
186.024	11171.52391
186.247	-1625.17044
186.47	1142.20415
186.693	423.52321
186.916	353.16844
187.139	-3902.87977
187.362	3530.35326
187.585	4699.92628
187.808	3628.37853
188.031	23.47863
188.254	-58990.23778
188.476	-678.38995
188.699	6482.56976
188.922	686.95962
189.145	-16036.27317
189.368	-640.62292
189.591	-1457.47988
189.813	3138.32691
190.036	-50178.29274
190.259	-880.45923
190.482	-4780.86378
190.705	7304.04899
190.927	-2379.71911
191.15	13759.07922
191.373	3705.17577
191.595	-8895.32943
191.818	-4270.14595
192.041	-7381.97465
192.263	-3419.99578
192.486	-989.78772
192.709	-3919.572
192.931	7878.20742
193.154	-28898.30545
193.377	-2921.13421
193.599	-2814.25873
193.822	-9441.89354
194.044	-1906.80449
194.267	1162.11803
194.489	371.12179
194.712	-44447.66327
194.934	-32087.0503
195.157	1325.36212
195.379	1497.48917
195.602	-7338.84254
195.824	-1327.83847
196.047	-9219.09062
196.269	2733.6272
196.492	-6421.9652
196.714	28476.00103
196.936	-8759.8806
197.159	-1206.81437
197.381	1159.5163
197.604	402.03413
197.826	12362.42888
198.048	-11410.39296
198.271	-2912.79917
198.493	7749.1201
198.715	2361.54867
198.938	-537.05079
199.16	7269.59235
199.382	-104158.13004
199.604	2749.64324
199.827	-1121.05445
200.049	-2956.53758
200.271	13982.74401
200.493	1285.11703
200.715	-38150.4382
200.938	-6320.29412
201.16	-4313.38509
201.382	21687.19535
201.604	2298.62854
201.826	2276.66813
202.048	-2053.28799
202.27	-2062.68569
202.492	-36600.68941
202.715	2870.38565
202.937	-4408.57867
203.159	-6525.81678
203.381	1516.33755
203.603	7223.61629
203.825	6759.07293
204.047	2173.65669
204.269	-2981.48353
204.491	2091.80565
204.713	6053.65675
204.935	-487311.11968
205.156	1197.37663
205.378	-2896.97806
205.6	1731.3218
205.822	157708.21727
206.044	-1051.93609
206.266	1566.3836
206.488	4913.25099
206.71	-5263.51009
206.932	1196.0335
207.153	12450.0777
207.375	-7090.05969
207.597	-39495.94341
207.819	-2856.02745
208.041	2498.74321
208.262	528.08357
208.484	708.00163
208.706	-812.43101
208.927	-895.9007
209.149	542.78186
209.371	-2900.52435
209.593	-304.82234
209.814	-881.38108
210.036	523.54123
210.258	-755.14353
210.479	1723.05756
210.701	1616.06814
210.922	3357.59313
211.144	-3745.7936
211.366	2131.36404
211.587	7500.20382
211.809	-8571.69462
212.03	2383.29342
212.252	498.48111
212.473	2042.95425
212.695	-5591.5042
212.916	3127.01848
213.138	-637.82984
213.359	3879.44321
213.581	5196.90436
213.802	-805.01838
214.024	1133.1069
214.245	2145.72947
214.466	3313.09553
214.688	-3217.53629
214.909	-1192.04566
215.131	-1700.23964
215.352	-3258.42349
215.573	15351.11684
215.795	5224.06132
216.016	5345.84236
216.237	847.25707
216.459	3698.60411
216.68	1917.48738
216.901	5356.62944
217.122	-3027.72552
217.344	-11417.23435
217.565	3405.58375
217.786	9098.29403
218.007	16249.01053
218.228	-710.48105
218.45	5573.13474
218.671	827.61866
218.892	37908.38084
219.113	1538.30867
219.334	-460.31448
219.555	10384.87147
219.776	3304.75734
219.997	23082.78313
220.219	2920.70178
220.44	-10451.49017
220.661	448.52318
220.882	1566.46418
221.103	-1214.42541
221.324	2270.26504
221.545	2301.94281
221.766	-9183.09563
221.987	923.15879
222.208	1630.23733
222.429	4479.32198
222.65	370.08805
222.87	19840.12128
223.091	704.60119
223.312	608.95282
223.533	1384.90808
223.754	1499.62328
223.975	1392.13089
224.196	1998.64896
224.417	1368.27902
224.637	623.12819
224.858	90.43487
225.079	1129.00753
225.3	653.4301
225.521	3824.05351
225.741	477.95836
225.962	504.27102
226.183	139.36901
226.404	671.11255
226.624	463.1172
226.845	665.11716
227.066	418.03159
227.286	255.79079
227.507	130.21868
227.728	114.27032
227.948	238.64797
228.169	80.4826
228.389	86.81854
228.61	49.18966
228.831	64.26668
229.051	1.2898
229.272	39.77144
229.492	57.46943
229.713	13.7792
229.933	38.93017
230.154	33.52374
230.374	54.92739
230.595	36.96977
230.815	23.86892
231.036	38.9893
231.256	-8.88333
231.477	70.48181
231.697	37.45197
231.917	41.57115
232.138	56.24963
232.358	111.98698
232.579	107.91377
232.799	15.9878
233.019	108.24831
233.24	119.95705
233.46	39.35048
233.68	66.35678
233.901	45.36999
234.121	28.23332
234.341	13.44229
234.561	-5.55442
234.782	20.54597
235.002	67.27236
235.222	-3.88016
235.442	65.36432
235.662	33.90774
235.883	64.43068
236.103	49.58242
236.323	37.34115
236.543	32.89397
236.763	39.30107
236.983	45.30953
237.203	39.3178
237.423	63.34964
237.643	89.2265
237.864	76.41951
238.084	17.2101
238.304	25.33275
238.524	47.20491
238.744	40.21631
238.964	75.54653
239.184	63.32347
239.404	66.42717
239.624	36.70356
239.843	61.08856
240.063	35.98761
240.283	22.17079
240.503	25.21945
240.723	25.68067
240.943	15.2521
241.163	19.43443
241.383	15.05775
241.603	7.14297
241.822	9.88071
242.042	6.62907
242.262	8.81579
242.482	9.843
242.702	10.91122
242.921	2.99825
243.141	6.98286
243.361	7.02633
243.581	10.16398
243.8	8.06644
244.02	5.42844
244.24	9.43236
244.459	9.48283
244.679	18.42323
244.899	10.8425
245.118	14.03996
245.338	12.1522
245.558	13.76637
245.777	8.71796
245.997	10.7265
246.216	10.05264
246.436	6.40263
246.655	4.83442
246.875	3.25196
247.094	6.57729
247.314	2.11114
247.533	3.68453
247.753	4.39497
247.972	3.41847
248.192	1.10122
248.411	1.89972
248.631	3.48115
248.85	4.90398
249.07	4.13884
249.289	6.20757
249.508	4.81364
249.728	6.73741
249.947	7.25065
250.166	9.31856
250.386	4.20481
250.605	7.17293
250.824	11.34768
251.044	7.53059
251.263	29.24051
251.482	14.80166
251.701	11.89027
251.921	-0.38528
252.14	3.10696
252.359	3.96318
252.578	10.25726
252.798	3.53561
253.017	9.15934
253.236	4.30712
253.455	6.01419
253.674	10.61536
253.893	4.62671
254.112	8.09095
254.331	11.18239
254.551	8.49276
254.77	3.79096
254.989	13.65369
255.208	9.98307
255.427	15.0163
255.646	11.82136
255.865	21.88424
256.084	8.94943
256.303	10.63521
256.522	13.74809
256.741	2.39974
256.96	3.18607
257.179	8.23306
257.397	11.00792
257.616	6.01663
257.835	6.12223
258.054	15.73743
258.273	10.7144
258.492	11.35858
258.711	6.83145
258.93	3.25208
259.148	4.96671
259.367	4.60092
259.586	5.70925
259.805	2.40742
260.023	5.35709
260.242	4.02696
260.461	2.80086
260.68	1.30359
260.898	4.5367
261.117	1.57868
261.336	0.98375
261.554	3.47292
261.773	3.41375
261.992	0.9149
262.21	3.3222
262.429	3.43985
262.648	7.54194
262.866	8.21917
263.085	5.72978
263.303	5.16985
263.522	8.86708
263.74	9.16167
263.959	15.63782
264.178	7.13702
264.396	6.52405
264.615	4.61794
264.833	10.60659
265.051	8.9642
265.27	11.13546
265.488	11.33792
265.707	6.2679
265.925	11.29926
266.144	4.94684
266.362	5.83482
266.58	5.64876
266.799	5.22181
267.017	6.05656
267.235	5.64317
267.454	3.30591
267.672	1.97175
267.89	3.97056
268.109	4.47951
268.327	4.52642
268.545	1.08145
268.763	3.93136
268.982	1.32078
269.2	4.32229
269.418	3.09832
269.636	2.07172
269.854	4.77054
270.073	3.25019
270.291	1.82256
270.509	1.74745
270.727	4.48193
270.945	7.53327
271.163	7.33095
271.381	1.48854
271.599	3.45658
271.817	5.47906
272.036	1.85625
272.254	3.22594
272.472	2.55132
272.69	2.57094
272.908	2.40016
273.126	4.48672
273.344	5.63975
273.562	1.94667
273.779	2.42485
273.997	3.75196
274.215	4.36359
274.433	2.79625
274.651	4.45324
274.869	4.95675
275.087	3.0507
275.305	4.10166
275.523	2.48146
275.74	3.05238
275.958	5.68277
276.176	8.50227
276.394	2.42796
276.612	3.20372
276.829	3.21462
277.047	2.74432
277.265	2.96964
277.483	3.60314
277.7	4.33327
277.918	3.38001
278.136	6.5439
278.353	2.73192
278.571	1.86152
278.789	4.66401
279.006	0.9258
279.224	2.85158
279.442	5.13674
279.659	3.60327
279.877	2.57247
280.094	6.16238
280.312	1.03058
280.529	3.4086
280.747	0.98989
280.964	2.53748
281.182	6.2752
281.399	2.81793
281.617	3.95313
281.834	2.50316
282.052	2.00041
282.269	3.28207
282.487	2.68354
282.704	2.15602
282.921	2.39415
283.139	3.44058
283.356	4.07782
283.574	3.96041
283.791	1.99675
284.008	5.65469
284.226	3.03295
284.443	3.14566
284.66	4.40269
284.877	3.55041
285.095	2.22621
285.312	1.72638
285.529	0.82756
285.746	0.83424
285.964	2.12545
286.181	1.46629
286.398	2.03437
286.615	2.72414
286.832	2.65968
287.05	0.49624
287.267	1.92408
287.484	1.89659
287.701	2.62204
287.918	2.72046
288.135	2.84122
288.352	1.35051
288.569	1.29195
288.786	2.50019
289.003	2.11739
289.22	3.12375
289.437	1.7258
289.654	2.71707
289.871	3.15417
290.088	2.99734
290.305	2.24992
290.522	1.77293
290.739	2.08698
290.956	3.2188
291.173	3.67996
291.39	3.54031
291.607	2.43492
291.824	1.75893
292.04	1.29908
292.257	2.89177
292.474	3.22141
292.691	1.96067
292.908	1.03761
293.125	1.77628
293.341	1.04497
293.558	5.19782
293.775	2.00486
293.992	1.95998
294.208	0.92575
294.425	1.28027
294.642	1.89866
294.858	2.79518
295.075	0.72732
295.292	2.04726
295.508	2.3634
295.725	4.20502
295.942	1.71002
296.158	1.2663
296.375	1.96533
296.591	1.57235
296.808	1.69651
297.024	1.90111
297.241	2.21422
297.458	2.38716
297.674	0.12055
297.891	1.84623
298.107	1.40108
298.323	1.1815
298.54	3.09966
298.756	1.25506
298.973	0.63126
299.189	3.17118
299.406	1.10766
299.622	2.82789
299.838	2.71834
300.055	2.70143
300.271	0.62576
300.487	1.03459
300.704	1.22966
300.92	0.604
301.136	4.25237
301.353	2.76001
301.569	1.92922
301.785	2.25754
302.001	2.63047
302.218	2.15182
302.434	2.34163
302.65	0.63604
302.866	1.5677
303.083	3.90494
303.299	3.73892
303.515	2.02384
303.731	2.00417
303.947	0.4745
304.163	1.09594
304.379	2.1363
304.595	2.57677
304.812	1.20867
305.028	1.27165
305.244	1.77557
305.46	2.70523
305.676	2.63018
305.892	3.18674
306.108	2.26198
306.324	1.49568
306.54	3.66668
306.756	2.62759
306.972	2.505
307.187	1.83206
307.403	3.43535
307.619	1.48098
307.835	3.05785
308.051	3.54733
308.267	0.95328
308.483	2.97026
308.699	2.43497
308.914	1.96388
309.13	1.75411
309.346	0.61251
309.562	0.97987
309.778	0.79755
309.993	2.43246
310.209	1.92093
310.425	0.86319
310.641	1.68808
310.856	0.94476
311.072	0.95308
311.288	1.81746
311.503	1.94777
311.719	0.35448
311.935	0.17888
312.15	2.26668
312.366	1.83554
312.581	2.31346
312.797	1.7896
313.013	2.62352
313.228	1.27615
313.444	1.93712
313.659	1.36175
313.875	2.27186
314.09	1.77664
314.306	3.22752
314.521	2.61337
314.737	2.59218
314.952	1.93255
315.168	1.83694
315.383	2.2835
315.599	1.77628
315.814	1.49872
316.029	2.61687
316.245	0.73666
316.46	0.56225
316.675	3.05485
316.891	3.44023
317.106	4.71121
317.321	2.19981
317.537	2.4627
317.752	2.68752
317.967	2.8459
318.183	1.11708
318.398	1.48117
318.613	2.70705
318.828	3.36585
319.043	2.742
319.259	1.75518
319.474	2.29275
319.689	3.1719
319.904	0.47615
320.119	2.63787
320.334	2.32522
320.549	1.84175
320.765	3.08979
320.98	2.18057
321.195	2.61575
321.41	1.76882
321.625	2.76638
321.84	3.6628
322.055	3.91037
322.27	1.22865
322.485	1.05363
322.7	2.236
322.915	2.84618
323.13	1.10374
323.345	3.32779
323.56	3.1154
323.775	2.45984
323.989	2.43366
324.204	2.30579
324.419	2.9145
324.634	0.87808
324.849	1.85841
325.064	5.02497
325.279	2.83404
325.493	2.42504
325.708	2.82284
325.923	1.2775
326.138	1.3407
326.352	3.45777
326.567	2.96157
326.782	1.63416
326.997	1.22966
327.211	2.54575
327.426	2.30474
327.641	1.599
327.855	0.60857
328.07	2.40877
328.285	3.5461
328.499	1.5323
328.714	2.24512
328.928	2.69264
329.143	1.86752
329.358	2.86195
329.572	2.91811
329.787	3.15728
330.001	4.31747
330.216	0.84751
330.43	3.63445
330.645	3.70919
330.859	2.70541
331.074	1.45082
331.288	2.34006
331.503	3.17309
331.717	1.09718
331.931	2.1715
332.146	2.21618
332.36	3.73199
332.575	2.40303
332.789	2.34221
333.003	2.16556
333.218	2.5093
333.432	1.37722
333.646	2.79329
333.86	3.45088
334.075	3.32888
334.289	1.4274
334.503	1.20012
334.717	2.33565
334.932	2.44336
335.146	3.39612
335.36	1.76347
335.574	2.60405
335.788	2.33657
336.003	2.96627
336.217	2.51227
336.431	2.54011
336.645	1.40966
336.859	0.95206
337.073	1.77557
337.287	2.30217
337.501	1.07271
337.715	2.12642
337.929	2.81396
338.143	0.90793
338.357	1.89762
338.571	1.17316
338.785	2.32244
338.999	1.62729
339.213	1.52354
339.427	0.70138
339.641	3.15818
339.855	1.7526
340.069	1.46574
340.283	2.96519
340.497	3.71377
340.711	2.25055
340.924	1.6323
341.138	1.03298
341.352	0.84257
341.566	2.24011
341.78	0.60433
341.993	1.57061
342.207	1.14844
342.421	2.15805
342.635	1.91275
342.848	1.57242
343.062	0.21711
343.276	1.27349
343.49	3.77233
343.703	1.34232
343.917	2.79783
344.131	2.67347
344.344	1.34177
344.558	1.62811
344.771	0.97426
344.985	3.30863
345.199	3.21355
345.412	2.12365
345.626	2.18256
345.839	0.593
346.053	0.94301
346.266	1.05648
346.48	2.49562
346.693	2.2182
346.907	2.16854
347.12	1.24378
347.334	2.19343
347.547	2.18257
347.76	1.47763
347.974	2.92806
348.187	2.12246
348.401	1.41194
348.614	1.51191
348.827	1.4562
349.041	2.33705
349.254	0.55361
349.467	1.57573
349.681	0.76934
349.894	1.41842
350.107	2.9451
350.32	3.20545
350.534	0.51144
350.747	1.47344
350.96	1.03334
351.173	1.27684
351.386	1.59639
351.6	1.44272
351.813	1.17459
352.026	1.70299
352.239	0.67405
352.452	1.43891
352.665	2.64183
352.878	1.73537
353.092	3.39133
353.305	2.31716
353.518	2.01064
353.731	1.19338
353.944	2.66862
354.157	1.23706
354.37	0.95897
354.583	0.92706
354.796	0.41058
355.009	2.5929
355.222	1.98018
355.435	1.76862
355.647	2.54677
355.86	0.94452
356.073	1.66326
356.286	1.28934
356.499	2.2535
356.712	1.85333
356.925	2.18057
357.138	2.36696
357.35	0.92135
357.563	1.42048
357.776	1.76318
357.989	1.25022
358.201	2.00872
358.414	1.74244
358.627	2.63822
358.84	1.33773
359.052	0.69396
359.265	0.92056
359.478	2.49226
359.69	-0.27589
359.903	2.01281
360.116	2.2139
360.328	0.34929
360.541	2.28021
360.753	0.69729
360.966	1.11133
361.179	1.16328
361.391	1.05522
361.604	0.73632
361.816	1.17371
362.029	0.94442
362.241	0.80264
362.454	0.91185
362.666	0.74312
362.879	1.4713
363.091	1.19623
363.304	0.7849
363.516	1.30739
363.728	0.58807
363.941	1.74083
364.153	1.05117
364.366	-0.05555
364.578	0.65036
364.79	1.67208
365.003	1.33379
365.215	0.96302
365.427	1.75148
365.639	2.19557
365.852	1.49495
366.064	3.22297
366.276	1.17108
366.488	1.81364
366.701	1.08612
366.913	1.30203
367.125	1.26806
367.337	0.83644
367.549	1.01967
367.762	1.51796
367.974	1.53819
368.186	0.77043
368.398	2.12878
368.61	1.92777
368.822	1.84395
369.034	1.4687
369.246	1.86705
369.458	3.54277
369.67	0.74852
369.882	2.84808
370.094	0.14527
370.306	2.81398
370.518	1.17713
370.73	0.95237
370.942	0.88202
371.154	1.32516
371.366	1.0527
371.578	1.58296
371.79	0.78554
372.002	2.21914
372.214	2.84411
372.425	1.54723
372.637	2.24145
372.849	1.67097
373.061	0.03893
373.273	1.74786
373.484	1.59101
373.696	2.108
373.908	-0.03085
374.12	2.32688
374.331	1.63501
374.543	0.98867
374.755	0.78165
374.967	1.6338
375.178	1.94242
375.39	1.13173
375.602	1.5331
375.813	0.44789
376.025	0.6246
376.236	1.55785
376.448	1.61126
376.66	1.04043
376.871	1.04046
377.083	2.3501
377.294	2.39311
377.506	0.96948
377.717	2.34143
377.929	1.53355
378.14	0.91692
378.352	1.7062
378.563	1.61515
378.775	2.38575
378.986	0.80192
379.197	1.38163
379.409	0.95421
379.62	2.03557
379.832	1.84063
380.043	1.24534
380.254	1.53496
380.466	0.80313
380.677	3.59818
380.888	2.91873
381.1	3.21263
381.311	3.20706
381.522	1.49961
381.733	3.55972
381.945	1.33391
382.156	1.64923
382.367	1.01744
382.578	3.47611
382.789	3.32565
383.001	1.14649
383.212	2.26207
383.423	2.61768
383.634	2.41951
383.845	1.98153
384.056	1.25666
384.267	1.69817
384.478	1.53264
384.69	0.79809
384.901	1.84454
385.112	1.84882
385.323	2.62799
385.534	1.87875
385.745	1.80501
385.956	1.84931
386.167	0.93755
386.378	1.98146
386.588	0.88912
386.799	1.14747
387.01	0.52008
387.221	2.18089
387.432	1.52773
387.643	2.93604
387.854	1.4536
388.065	1.37104
388.275	1.51844
388.486	1.37167
388.697	1.44601
388.908	1.46253
389.119	2.55127
389.329	2.87535
389.54	1.77481
389.751	1.9666
389.962	2.56374
390.172	1.90851
390.383	1.47223
390.594	1.3112
390.804	1.31387
391.015	1.36376
391.226	1.84531
391.436	2.12435
391.647	1.9496
391.858	2.16346
392.068	0.64615
392.279	1.04909
392.489	1.78484
392.7	2.58981
392.91	1.1358
393.121	1.29798
393.331	2.12439
393.542	2.55591
393.752	2.20969
393.963	2.10729
394.173	2.00268
394.384	2.24581
394.594	1.86525
394.804	1.16969
395.015	1.93536
395.225	2.27323
395.436	1.23276
395.646	2.26526
395.856	1.37289
396.067	1.0941
396.277	2.6001
396.487	2.17016
396.697	2.06013
396.908	2.29019
397.118	2.39258
397.328	2.18796
397.538	2.703
397.749	1.48862
397.959	2.56338
398.169	2.57483
398.379	1.23657
398.589	2.62086
398.8	2.1892
399.01	2.09387
399.22	1.8828
399.43	3.67884
399.64	2.00827
399.85	2.62318
400.06	2.16785
400.27	1.67423
400.48	2.22529
400.69	3.29386
400.9	1.9829
401.11	1.70644
401.32	2.77562
401.53	2.03314
401.74	3.41196
401.95	2.7884
402.16	1.68879
402.37	2.48034
402.58	1.88143
402.79	2.84328
403	3.07518
403.209	2.02001
403.419	3.01538
403.629	1.90596
403.839	2.94875
404.049	3.00502
404.258	2.07517
404.468	1.94733
404.678	2.64741
404.888	3.07129
405.097	1.94262
405.307	2.40092
405.517	2.84751
405.727	2.66591
405.936	2.23879
406.146	2.70739
406.356	3.36516
406.565	2.50489
406.775	2.24972
406.984	2.18762
407.194	3.62158
407.404	2.54735
407.613	2.86922
407.823	3.14683
408.032	3.28477
408.242	3.32152
408.451	2.41537
408.661	2.65736
408.87	3.81709
409.08	2.28605
409.289	2.88465
409.499	2.83778
409.708	2.88886
409.918	1.53152
410.127	2.84059
410.336	3.79028
410.546	3.22934
410.755	2.50745
410.964	2.54118
411.174	2.27935
411.383	3.08575
411.592	3.09577
411.802	2.16654
412.011	3.41802
412.22	2.63186
412.429	3.95368
412.639	3.80317
412.848	3.59938
413.057	3.73146
413.266	3.67215
413.475	3.04278
413.685	3.33871
413.894	3.56379
414.103	3.75171
414.312	3.53427
414.521	2.95885
414.73	3.03801
414.939	4.47047
415.148	3.46158
415.357	3.27103
415.566	2.9123
415.776	2.9923
415.985	2.88656
416.194	3.65407
416.403	4.25255
416.611	2.43769
416.82	2.98066
417.029	3.35321
417.238	2.90769
417.447	2.76646
417.656	3.05067
417.865	2.90721
418.074	3.09168
418.283	3.25612
418.492	3.79163
418.7	3.65924
418.909	4.3872
419.118	3.60745
419.327	3.82566
419.536	3.71875
419.744	3.44992
419.953	4.5603
420.162	4.58796
420.371	3.87879
420.579	3.94832
420.788	4.8381
420.997	4.82306
421.205	4.92479
421.414	4.70618
421.623	4.73243
421.831	4.37311
422.04	4.94341
422.249	4.17307
422.457	4.71875
422.666	4.08512
422.874	4.9822
423.083	4.99661
423.291	4.98885
423.5	4.74957
423.708	5.01042
423.917	5.35599
424.125	4.92947
424.334	4.7357
424.542	6.31421
424.751	5.65394
424.959	5.35981
425.167	5.6369
425.376	5.38867
425.584	4.69395
425.793	4.71865
426.001	3.99225
426.209	4.52283
426.418	3.65344
426.626	3.66758
426.834	3.45343
427.042	3.86845
427.251	3.49104
427.459	4.31799
427.667	3.86004
427.875	3.24206
428.084	3.63516
428.292	4.62205
428.5	4.1512
428.708	3.40055
428.916	3.29688
429.124	3.94332
429.333	3.70441
429.541	3.78186
429.749	3.92214
429.957	3.89684
430.165	5.50028
430.373	3.08197
430.581	4.13553
430.789	4.82974
430.997	3.75993
431.205	3.53243
431.413	4.19741
431.621	3.8484
431.829	4.4296
432.037	3.91874
432.245	4.08794
432.453	4.34148
432.661	4.00218
432.869	5.10765
433.076	3.61234
433.284	4.06344
433.492	4.44572
433.7	4.72272
433.908	3.93616
434.116	4.35383
434.323	4.21217
434.531	4.12052
434.739	4.36203
434.947	4.69779
435.154	4.56824
435.362	4.16923
435.57	4.0312
435.778	3.82348
435.985	4.37519
436.193	3.91818
436.401	4.8581
436.608	4.19085
436.816	3.98222
437.023	5.03079
437.231	5.1632
437.439	4.43019
437.646	4.56372
437.854	4.4385
438.061	4.6383
438.269	4.29128
438.476	4.65928
438.684	4.35734
438.891	4.2112
439.099	4.03313
439.306	3.78499
439.514	3.80201
439.721	4.71419
439.929	4.25438
440.136	4.98643
440.343	4.99253
440.551	4.75835
440.758	6.2354
440.965	5.17113
441.173	4.87365
441.38	4.59673
441.587	4.77881
441.795	4.44616
442.002	4.53086
442.209	4.48473
442.416	4.68893
442.624	4.59452
442.831	4.53301
443.038	4.10808
443.245	3.84709
443.452	4.21364
443.66	4.67273
443.867	4.12913
444.074	4.10849
444.281	4.10443
444.488	4.39271
444.695	4.49665
444.902	4.25433
445.109	5.09427
445.316	4.77868
445.523	4.85787
445.73	4.79569
445.937	5.49708
446.144	5.85386
446.351	5.9604
446.558	5.19557
446.765	6.44289
446.972	6.24415
447.179	5.68993
447.386	6.40141
447.593	5.16524
447.8	5.93463
448.007	4.93649
448.214	4.72246
448.42	4.33343
448.627	5.01725
448.834	4.41073
449.041	4.28681
449.248	4.233
449.454	4.78747
449.661	5.40728
449.868	4.28031
450.075	4.14342
450.281	3.35958
450.488	3.85448
450.695	3.96738
450.901	4.10326
451.108	4.17813
451.315	4.96964
451.521	4.36889
451.728	5.02698
451.935	4.05298
452.141	4.35056
452.348	4.49439
452.554	4.35629
452.761	4.17832
452.967	5.34789
453.174	4.5535
453.38	4.60513
453.587	3.8695
453.793	4.49404
454	5.05519
454.206	5.59403
454.413	4.97673
454.619	4.62386
454.825	4.13552
455.032	4.80706
455.238	4.91421
455.445	3.84746
455.651	4.51352
455.857	3.57421
456.064	4.24207
456.27	4.25881
456.476	4.32719
456.682	3.82687
456.889	4.71464
457.095	4.73791
457.301	5.91905
457.507	4.58392
457.714	4.58336
457.92	4.59131
458.126	4.26798
458.332	4.51034
458.538	4.34897
458.744	4.52993
458.951	4.56836
459.157	6.1893
459.363	5.2263
459.569	5.35164
459.775	5.95367
459.981	5.38062
460.187	5.70127
460.393	5.96329
460.599	6.3061
460.805	5.3576
461.011	5.00562
461.217	5.27686
461.423	5.1007
461.629	4.48405
461.835	4.8591
462.041	4.44531
462.247	5.40099
462.453	4.43248
462.658	4.49081
462.864	4.95658
463.07	4.74254
463.276	4.68388
463.482	4.71265
463.688	5.41391
463.893	4.43409
464.099	4.53988
464.305	5.49222
464.511	4.4244
464.716	4.64461
464.922	5.08468
465.128	4.27555
465.333	5.5638
465.539	4.98239
465.745	4.59346
465.95	4.70421
466.156	6.13832
466.362	5.38814
466.567	4.70334
466.773	4.50335
466.978	5.61255
467.184	4.23117
467.389	3.72033
467.595	4.88308
467.8	4.30372
468.006	5.4827
468.211	5.32613
468.417	4.05804
468.622	4.90896
468.828	5.11758
469.033	4.91754
469.239	6.27021
469.444	4.55745
469.649	5.29037
469.855	4.6833
470.06	4.84869
470.266	4.30291
470.471	5.00502
470.676	4.91955
470.881	3.84841
471.087	5.12115
471.292	6.29979
471.497	4.08964
471.703	4.65099
471.908	4.38726
472.113	4.87977
472.318	5.33207
472.523	4.23968
472.729	4.97242
472.934	5.12118
473.139	4.46487
473.344	5.02368
473.549	5.45246
473.754	4.52365
473.959	6.26422
474.164	4.32169
474.369	4.73988
474.575	5.21056
474.78	4.77083
474.985	4.51914
475.19	3.85689
475.395	4.3268
475.6	4.77921
475.804	5.63932
476.009	4.83732
476.214	4.8335
476.419	4.67652
476.624	3.99661
476.829	4.3668
477.034	5.1236
477.239	4.44605
477.444	5.16248
477.648	5.08616
477.853	5.15416
478.058	4.65774
478.263	4.406
478.468	4.26543
478.672	4.33931
478.877	5.52753
479.082	5.6321
479.287	4.97769
479.491	4.76791
479.696	4.29902
479.901	5.14251
480.105	5.18287
480.31	4.56027
480.515	4.88009
480.719	5.94967
480.924	4.62532
481.128	4.36664
481.333	4.99684
481.538	5.08397
481.742	5.03874
481.947	5.73259
482.151	6.35371
482.356	6.62786
482.56	8.02119
482.765	8.73527
482.969	10.54136
483.174	11.87698
483.378	13.78611
483.582	14.16211
483.787	15.33052
483.991	15.45295
484.196	15.75627
484.4	15.26081
484.604	15.78222
484.809	13.90753
485.013	13.28578
485.217	11.96338
485.422	10.63312
485.626	9.75933
485.83	9.17479
486.034	8.88028
486.239	9.1078
486.443	9.32761
486.647	9.30992
486.851	10.18736
487.055	11.12002
487.26	10.68631
487.464	11.34515
487.668	10.88576
487.872	11.10153
488.076	11.49318
488.28	10.92563
488.484	10.12176
488.688	9.84746
488.892	9.49289
489.096	8.88077
489.3	8.00879
489.504	7.66543
489.708	7.36976
489.912	7.24637
490.116	7.12981
490.32	6.59019
490.524	7.48589
490.728	7.91656
490.932	8.22898
491.136	8.61167
491.34	9.53039
491.544	9.67545
491.748	9.49628
491.951	9.55077
492.155	9.16348
492.359	9.01314
492.563	8.00293
492.767	7.45881
492.97	6.84939
493.174	6.02276
493.378	5.60493
493.582	4.79906
493.785	4.79941
493.989	4.92809
494.193	4.90956
494.396	4.72022
494.6	5.25231
494.804	4.94644
495.007	4.54956
495.211	4.77449
495.414	4.75931
495.618	5.13886
495.822	5.62477
496.025	5.00081
496.229	5.33938
496.432	4.66887
496.636	5.0966
496.839	4.87358
497.043	5.64524
497.246	5.10747
497.45	4.73089
497.653	4.96449
497.856	5.01422
498.06	4.45631
498.263	4.83109
498.467	4.65201
498.67	5.30966
498.873	5.06
499.077	4.77171
499.28	4.76601
499.483	4.95776
499.686	5.17318
499.89	5.09597
500.093	5.35484
500.296	4.55187
500.499	5.62796
500.703	4.81108
500.906	5.0171
501.109	5.7137
501.312	4.90508
501.515	4.70286
501.719	5.00041
501.922	5.44024
502.125	4.99158
502.328	4.86995
502.531	4.40954
502.734	4.89177
502.937	4.04696
503.14	4.98467
503.343	4.51567
503.546	4.69148
503.749	4.50404
503.952	5.23167
504.155	4.43957
504.358	5.06729
504.561	4.84845
504.764	4.22997
504.967	4.92069
505.17	4.75983
505.373	5.58165
505.576	4.90867
505.778	5.22316
505.981	4.43658
506.184	5.48607
506.387	4.12829
506.59	5.93899
506.793	5.44615
506.995	5.18441
507.198	3.98649
507.401	5.07788
507.604	5.20875
507.806	4.4326
508.009	4.50784
508.212	5.34987
508.414	4.52282
508.617	4.6509
508.82	4.7449
509.022	5.60901
509.225	4.98459
509.427	4.19561
509.63	5.53143
509.833	4.88035
510.035	4.64117
510.238	4.10199
510.44	5.48436
510.643	3.94804
510.845	5.8023
511.048	5.01744
511.25	4.56284
511.453	4.70828
511.655	5.06569
511.858	4.66547
512.06	5.21014
512.262	4.89202
512.465	5.25304
512.667	4.51943
512.869	4.29637
513.072	5.01916
513.274	5.16639
513.476	4.9858
513.679	5.25624
513.881	4.29692
514.083	5.55705
514.286	4.36551
514.488	4.43142
514.69	4.28194
514.892	4.07505
515.094	5.09345
515.297	4.54622
515.499	4.86871
515.701	4.36698
515.903	5.62514
516.105	5.69559
516.307	5.23479
516.509	3.88335
516.711	4.32784
516.913	4.95788
517.116	4.87217
517.318	4.69291
517.52	5.42807
517.722	5.22848
517.924	4.32611
518.126	5.16465
518.328	4.68827
518.529	5.23055
518.731	6.11128
518.933	4.65528
519.135	4.93837
519.337	5.5221
519.539	5.02022
519.741	3.99309
519.943	4.58844
520.145	4.58017
520.346	5.02563
520.548	4.44217
520.75	4.86113
520.952	4.5052
521.153	4.85218
521.355	4.96602
521.557	4.24391
521.759	4.92411
521.96	4.71816
522.162	4.14032
522.364	5.25553
522.565	4.44426
522.767	5.11493
522.969	5.34971
523.17	5.05758
523.372	5.03244
523.573	4.53129
523.775	4.70193
523.977	4.42894
524.178	5.80205
524.38	4.57192
524.581	5.24854
524.783	4.82061
524.984	5.19697
525.186	4.99325
525.387	5.36374
525.589	5.27102
525.79	5.21859
525.991	5.05739
526.193	5.6317
526.394	4.9407
526.596	5.82737
526.797	5.96018
526.998	5.60858
527.2	5.77307
527.401	7.23935
527.602	7.63502
527.803	9.27096
528.005	9.65179
528.206	10.42734
528.407	11.15174
528.608	10.88684
528.81	11.09667
529.011	10.56271
529.212	11.47484
529.413	10.39483
529.614	9.74389
529.815	9.28667
530.017	8.47452
530.218	7.46072
530.419	6.54356
530.62	6.49062
530.821	6.17224
531.022	5.12555
531.223	5.84726
531.424	5.82959
531.625	5.77824
531.826	5.52462
532.027	5.8263
532.228	6.83329
532.429	6.64598
532.63	6.74985
532.831	7.35609
533.032	7.42142
533.233	7.95517
533.433	7.62889
533.634	7.86513
533.835	7.23157
534.036	6.85726
534.237	6.63503
534.438	6.08705
534.638	5.35462
534.839	5.17429
535.04	5.23735
535.241	4.74823
535.441	5.61803
535.642	5.27599
535.843	4.64747
536.043	4.80206
536.244	5.04166
536.445	5.19158
536.645	5.87568
536.846	5.49559
537.047	6.01499
537.247	4.92333
537.448	4.87324
537.648	4.85163
537.849	4.68564
538.049	4.65612
538.25	4.9859
538.451	4.89865
538.651	4.32498
538.851	5.00419
539.052	5.38451
539.252	5.12316
539.453	4.8786
539.653	5.04832
539.854	4.97138
540.054	5.06523
540.254	6.23216
540.455	6.83375
540.655	6.53014
540.855	7.49336
541.056	8.21641
541.256	8.00155
541.456	8.68156
541.657	8.14464
541.857	8.93075
542.057	7.63507
542.257	7.37935
542.458	7.77169
542.658	7.71934
542.858	6.24832
543.058	6.65389
543.258	6.16297
543.458	5.12774
543.659	4.85172
543.859	5.45399
544.059	5.27858
544.259	4.8486
544.459	5.44381
544.659	4.64238
544.859	4.99976
545.059	4.6251
545.259	5.21211
545.459	4.96591
545.659	5.3886
545.859	4.97093
546.059	5.16545
546.259	4.54836
546.459	4.23789
546.659	4.4397
546.859	5.20287
547.059	5.02561
547.258	5.06686
547.458	5.00709
547.658	4.29762
547.858	4.17998
548.058	4.81183
548.258	4.54872
548.457	4.24988
548.657	6.02812
548.857	4.55946
549.057	5.28337
549.256	4.93706
549.456	4.54574
549.656	3.68918
549.855	6.11199
550.055	4.54332
550.255	5.81851
550.454	5.1648
550.654	5.47063
550.853	5.90495
551.053	5.46938
551.253	5.07095
551.452	5.32568
551.652	4.13559
551.851	3.99998
552.051	4.59275
552.25	4.58305
552.45	4.35338
552.649	4.53713
552.849	4.27601
553.048	4.87183
553.248	5.14251
553.447	4.17182
553.646	5.19154
553.846	6.29711
554.045	5.62796
554.244	4.02784
554.444	5.62153
554.643	4.09793
554.842	5.72049
555.042	6.03859
555.241	4.35398
555.44	4.29513
555.64	5.111
555.839	5.7957
556.038	5.15934
556.237	4.45143
556.436	5.00864
556.636	5.06769
556.835	4.35935
557.034	5.9226
557.233	4.85134
557.432	3.96972
557.631	5.48408
557.83	4.72903
558.029	4.6106
558.228	4.55424
558.427	4.21834
558.626	5.09729
558.825	4.20859
559.024	4.75833
559.223	6.13653
559.422	4.83077
559.621	5.19711
559.82	3.39812
560.019	4.95707
560.218	4.51817
560.417	3.17952
560.616	4.68459
560.815	7.02285
561.014	3.83162
561.212	5.75493
561.411	4.79212
561.61	3.90628
561.809	4.64059
562.008	6.07005
562.206	4.62164
562.405	5.02887
562.604	4.73033
562.803	4.88469
563.001	4.79972
563.2	3.96576
563.399	5.24717
563.597	4.02726
563.796	4.93136
563.995	4.00937
564.193	5.26285
564.392	4.60899
564.59	6.29435
564.789	3.57252
564.988	4.71731
565.186	4.95598
565.385	4.7419
565.583	4.53715
565.782	4.87779
565.98	4.52328
566.179	4.64142
566.377	4.07702
566.575	4.16069
566.774	5.52137
566.972	5.22048
567.171	6.01873
567.369	5.6688
567.567	4.85633
567.766	4.85006
567.964	3.37594
568.162	5.18457
568.361	5.62576
568.559	4.64489
568.757	4.9039
568.956	4.94099
569.154	4.80211
569.352	5.39001
569.55	4.64813
569.748	4.8385
569.947	4.22986
570.145	4.19868
570.343	4.19884
570.541	5.83429
570.739	3.91661
570.937	4.85134
571.135	5.16431
571.333	6.36423
571.532	6.08658
571.73	4.9484
571.928	5.3135
572.126	5.23234
572.324	4.51528
572.522	5.56934
572.72	6.40523
572.918	4.77484
573.116	4.94083
573.313	4.56359
573.511	4.55765
573.709	4.46482
573.907	5.24434
574.105	4.45367
574.303	3.63422
574.501	3.73268
574.699	5.0674
574.896	4.90991
575.094	5.22638
575.292	3.96024
575.49	5.33056
575.688	4.64647
575.885	5.6576
576.083	6.33033
576.281	5.16795
576.478	4.25827
576.676	5.14883
576.874	3.90934
577.071	4.76925
577.269	6.34462
577.467	4.68257
577.664	4.86484
577.862	5.36914
578.059	4.32277
578.257	5.47233
578.455	4.68993
578.652	4.85499
578.85	3.54253
579.047	5.02254
579.245	4.73014
579.442	4.91237
579.64	4.85358
579.837	3.49153
580.034	6.92058
580.232	4.77212
580.429	4.29143
580.627	5.41715
580.824	5.91991
581.021	5.4224
581.219	4.73063
581.416	4.55931
581.613	6.12148
581.811	6.00921
582.008	4.30418
582.205	5.83372
582.402	5.37782
582.6	6.26227
582.797	5.23454
582.994	5.52879
583.191	5.83687
583.388	5.15889
583.586	5.6637
583.783	6.00078
583.98	4.28371
584.177	5.25469
584.374	2.92318
584.571	4.88775
584.768	5.05495
584.965	4.89453
585.162	5.89431
585.359	6.39462
585.556	5.17657
585.753	5.47464
585.95	4.12888
586.147	4.24711
586.344	5.60219
586.541	4.99111
586.738	4.17215
586.935	4.99131
587.132	4.5202
587.329	6.18026
587.526	5.11227
587.722	9.47548
587.919	4.07375
588.116	5.49296
588.313	6.32318
588.51	6.97569
588.706	5.04467
588.903	5.67058
589.1	6.11463
589.297	7.7985
589.493	5.02254
589.69	5.67295
589.887	4.62693
590.083	4.13734
590.28	4.64849
590.477	5.96807
590.673	5.53612
590.87	6.24858
591.067	4.5768
591.263	5.53494
591.46	5.52942
591.656	4.95519
591.853	6.679
592.049	4.51154
592.246	4.63937
592.442	6.20273
592.639	6.09778
592.835	4.41855
593.032	5.51055
593.228	4.1389
593.425	4.17403
593.621	3.9225
593.817	5.52382
594.014	4.59074
594.21	5.40839
594.406	6.09538
594.603	5.46658
594.799	4.70279
594.995	3.29797
595.192	6.11202
595.388	4.77932
595.584	4.84884
595.78	4.03793
595.977	7.4701
596.173	6.55073
596.369	4.84489
596.565	4.32393
596.761	3.97922
596.957	6.06608
597.154	4.42573
597.35	4.55666
597.546	4.3396
597.742	5.20622
597.938	5.13447
598.134	4.21292
598.33	5.06308
598.526	5.98031
598.722	5.3177
598.918	6.58653
599.114	5.78862
599.31	4.1067
599.506	5.2195
599.702	4.7192
599.898	5.62492
600.094	6.17908
600.29	6.08502
600.485	5.97519
600.681	4.8313
600.877	6.79704
601.073	5.42023
601.269	7.44415
601.465	6.89037
601.66	4.61744
601.856	3.64325
602.052	7.48374
602.248	4.99597
602.443	3.55503
602.639	4.30848
602.835	4.66655
603.03	4.3734
603.226	6.04522
603.422	4.40652
603.617	5.01102
603.813	4.82393
604.009	4.57704
604.204	6.04304
604.4	3.82124
604.595	5.88451
604.791	4.01659
604.986	5.15819
605.182	4.23709
605.377	4.4654
605.573	4.66984
605.768	4.96862
605.964	5.41804
606.159	5.64964
606.355	5.99817
606.55	4.76114
606.746	5.97462
606.941	5.18213
607.136	6.93728
607.332	7.95702
607.527	4.28204
607.722	5.5735
607.918	5.24207
608.113	4.55998
608.308	6.1397
608.503	5.85717
608.699	5.69277
608.894	5.73483
609.089	4.58001
609.284	5.61873
609.479	4.85463
609.675	5.70213
609.87	4.91284
610.065	5.73231
610.26	5.97044
610.455	5.98321
610.65	5.2329
610.845	5.75468
611.04	6.00138
611.235	5.16546
611.43	5.28843
611.625	4.65807
611.82	6.89211
612.015	5.08391
612.21	7.37495
612.405	4.34774
612.6	7.72337
612.795	7.24472
612.99	6.67639
613.185	4.5982
613.38	4.83355
613.575	6.01697
613.77	8.87331
613.965	4.30524
614.159	5.03766
614.354	7.13693
614.549	6.99818
614.744	6.42924
614.938	4.64577
615.133	4.43469
615.328	7.22049
615.523	7.2565
615.717	8.93364
615.912	5.35052
616.107	5.99771
616.301	5.48362
616.496	5.08984
616.691	7.61921
616.885	6.55495
617.08	8.64274
617.274	7.06822
617.469	8.16784
617.664	6.4702
617.858	5.34951
618.053	6.22805
618.247	5.55718
618.442	3.45035
618.636	7.43335
618.831	5.23752
619.025	5.17931
619.219	9.16795
619.414	2.43484
619.608	5.72391
619.803	4.87436
619.997	8.24809
620.191	7.25868
620.386	6.35982
620.58	5.83535
620.774	4.06896
620.969	4.01149
621.163	6.117
621.357	4.46081
621.551	5.71335
621.746	6.09456
621.94	5.72702
622.134	9.87146
622.328	8.4095
622.522	4.42403
622.716	7.27387
622.911	7.02817
623.105	6.87693
623.299	6.25383
623.493	9.65762
623.687	5.01828
623.881	5.3512
624.075	6.85505
624.269	7.19743
624.463	3.80312
624.657	4.08852
624.851	6.671
625.045	6.87515
625.239	6.94053
625.433	5.17987
625.627	7.99768
625.821	5.36833
626.015	4.85641
626.209	5.77882
626.403	3.9048
626.596	6.2363
626.79	6.68235
626.984	4.28494
627.178	6.30807
627.372	6.09128
627.565	6.49633
627.759	4.11879
627.953	4.29123
628.147	6.20923
628.34	6.63109
628.534	8.47151
628.728	5.28631
628.921	7.02361
629.115	6.84843
629.309	6.98527
629.502	7.38885
629.696	6.33343
629.89	5.85719
630.083	6.27136
630.277	6.59639
630.47	8.17695
630.664	5.56197
630.857	4.3787
631.051	7.25706
631.244	7.77692
631.438	7.54787
631.631	5.53694
631.825	7.84946
632.018	6.94831
632.212	8.58204
632.405	7.81872
632.598	5.33793
632.792	6.44398
632.985	3.53128
633.178	5.77025
633.372	6.08238
633.565	6.10982
633.758	7.83306
633.952	5.01979
634.145	5.14166
634.338	6.01199
634.531	5.47711
634.724	4.84405
634.918	6.28463
635.111	5.74316
635.304	5.87925
635.497	9.10112
635.69	6.63405
635.883	7.72842
636.077	4.75218
636.27	6.95894
636.463	6.69442
636.656	6.84052
636.849	5.79385
637.042	6.90719
637.235	9.1717
637.428	7.4888
637.621	7.00687
637.814	8.48439
638.007	8.85584
638.2	8.68506
638.393	9.39936
638.586	4.68916
638.778	6.07635
638.971	6.59597
639.164	8.73898
639.357	7.34591
639.55	9.00038
639.743	7.68323
639.935	7.52898
640.128	10.0773
640.321	7.9899
640.514	7.36855
640.707	10.60851
640.899	8.11383
641.092	4.57916
641.285	22.67761
641.477	3.85264
641.67	10.79715
641.863	8.87312
642.055	7.3996
642.248	7.2126
642.441	6.9243
642.633	8.12678
642.826	9.31578
643.018	9.36277
643.211	10.01318
643.403	10.57446
643.596	10.87445
643.788	9.82603
643.981	6.56578
644.173	8.52162
644.366	6.29454
644.558	4.77527
644.751	8.55743
644.943	5.41429
645.135	10.14074
645.328	10.17529
645.52	8.50976
645.712	9.19661
645.905	12.43194
646.097	5.76463
646.289	7.98255
646.482	11.06834
646.674	6.15827
646.866	9.33517
647.058	8.30892
647.251	5.94138
647.443	6.42121
647.635	6.89175
647.827	5.8707
648.019	5.48204
648.211	7.26478
648.404	7.83111
648.596	10.414
648.788	8.40266
648.98	7.75998
649.172	8.61102
649.364	8.15016
649.556	4.86788
649.748	11.75234
649.94	6.17999
650.132	8.97851
650.324	6.45239
650.516	6.50393
650.708	9.62654
650.9	5.31408
651.092	5.10614
651.284	5.19875
651.476	5.82615
651.667	8.68165
651.859	10.14677
652.051	7.0875
652.243	7.82593
652.435	6.93003
652.627	8.41033
652.818	8.20813
653.01	5.0212
653.202	6.3766
653.394	7.00107
653.585	8.31063
653.777	15.47014
653.969	10.63854
654.16	9.33023
654.352	6.20013
654.544	7.56034
654.735	9.87448
654.927	7.8059
655.118	10.38692
655.31	9.25824
655.502	9.85803
655.693	7.46302
655.885	8.54807
656.076	10.77867
656.268	8.3986
656.459	10.46338
656.651	10.26669
656.842	7.26446
657.034	6.81797
657.225	9.7185
657.416	10.75415
657.608	10.2604
657.799	8.20101
657.99	9.8859
658.182	6.63025
658.373	6.65884
658.564	10.1595
658.756	8.35987
658.947	7.50453
659.138	6.18373
659.33	6.74166
659.521	6.21308
659.712	7.33635
659.903	7.24027
660.094	6.54481
660.286	4.97311
660.477	10.76519
660.668	8.57284
660.859	7.5098
661.05	5.4803
661.241	8.78396
661.432	8.47198
661.623	7.3344
661.814	7.68002
662.006	5.16276
662.197	8.20438
662.388	10.32993
662.579	9.00445
662.77	10.86738
662.96	13.4851
663.151	10.33349
663.342	5.0444
663.533	9.19297
663.724	8.155
663.915	12.21121
664.106	8.6749
664.297	12.31706
664.488	9.60039
664.678	7.36722
664.869	10.09715
665.06	10.1875
665.251	8.91307
665.442	10.04195
665.632	6.99756
665.823	12.91733
666.014	3.50877
666.204	9.99306
666.395	11.40288
666.586	13.73667
666.776	10.202
666.967	12.56931
667.158	8.93896
667.348	12.28289
667.539	7.02604
667.729	10.72615
667.92	7.39368
668.111	10.849
668.301	10.66831
668.492	8.43863
668.682	9.07686
668.873	8.63773
669.063	6.65723
669.253	9.40003
669.444	12.20474
669.634	8.87048
669.825	12.67864
670.015	11.33273
670.206	7.54778
670.396	13.43772
670.586	8.61583
670.777	10.10302
670.967	5.14653
671.157	8.90403
671.347	7.92641
671.538	12.46884
671.728	10.36942
671.918	13.17576
672.108	11.32585
672.299	9.05293
672.489	9.77877
672.679	7.67042
672.869	10.44117
673.059	14.21297
673.249	10.35992
673.44	7.67025
673.63	8.74753
673.82	11.38863
674.01	7.36586
674.2	10.82807
674.39	15.51401
674.58	10.96824
674.77	9.95623
674.96	9.07746
675.15	18.87674
675.34	12.09087
675.53	9.86282
675.72	8.7483
675.91	6.50095
676.099	13.7663
676.289	15.14667
676.479	12.05512
676.669	8.63571
676.859	11.10307
677.049	8.28369
677.238	9.91291
677.428	13.56484
677.618	10.79462
677.808	13.91435
677.997	11.08924
678.187	7.76117
678.377	9.74913
678.567	8.27139
678.756	8.90226
678.946	9.8356
679.136	6.93822
679.325	8.18725
679.515	7.89971
679.704	6.69923
679.894	11.31514
680.084	10.27584
680.273	12.23496
680.463	7.24668
680.652	7.52886
680.842	9.22854
681.031	11.46677
681.221	7.37874
681.41	10.45379
681.6	8.99412
681.789	11.09767
681.978	12.42677
682.168	10.57122
682.357	10.42484
682.547	11.11653
682.736	10.46679
682.925	12.88672
683.115	12.97328
683.304	11.6753
683.493	10.60747
683.682	11.68634
683.872	11.35301
684.061	13.25897
684.25	11.73935
684.439	16.22571
684.629	12.60927
684.818	19.14163
685.007	10.74123
685.196	9.77732
685.385	15.20576
685.574	11.98775
685.763	11.33957
685.952	11.34137
686.142	7.73635
686.331	14.30844
686.52	7.33532
686.709	16.15229
686.898	15.97863
687.087	12.90145
687.276	15.5571
687.465	14.40743
687.654	10.26103
687.842	14.91922
688.031	7.8362
688.22	15.04334
688.409	11.69201
688.598	11.98087
688.787	17.70576
688.976	11.49312
689.165	16.54992
689.353	10.63259
689.542	13.37677
689.731	14.43117
689.92	17.51337
690.108	13.7074
690.297	10.92629
690.486	12.13218
690.675	13.67463
690.863	16.28995
691.052	15.73851
691.241	12.82755
691.429	12.69745
691.618	15.45107
691.806	8.80946
691.995	11.37839
692.184	12.04256
692.372	11.2948
692.561	12.20438
692.749	13.02655
692.938	21.75027
693.126	13.94278
693.315	11.7704
693.503	14.76826
693.692	15.51377
693.88	15.28567
694.068	18.52371
694.257	13.81193
694.445	14.50264
694.634	7.33147
694.822	15.15339
695.01	16.27559
695.199	18.90769
695.387	17.16705
695.575	16.37612
695.763	12.26033
695.952	11.77744
696.14	8.03197
696.328	11.00121
696.516	13.16833
696.705	13.81066
696.893	13.18502
697.081	7.92683
697.269	14.96657
697.457	9.68469
697.645	8.86243
697.833	14.47829
698.021	9.92542
698.21	10.41118
698.398	10.96333
698.586	8.59676
698.774	7.78805
698.962	11.18748
699.15	8.28124
699.338	7.20572
699.526	12.08527
699.714	8.94018
699.901	8.93671
700.089	12.85452
700.277	9.32852
700.465	10.899
700.653	13.48948
700.841	13.03255
701.029	9.68429
701.217	16.22739
701.404	12.25121
701.592	16.54866
701.78	19.60693
701.968	12.19481
702.155	11.83616
702.343	9.05466
702.531	16.25958
702.718	14.22839
702.906	11.56416
703.094	11.75214
703.281	17.45907
703.469	12.31487
703.657	16.99865
703.844	24.31241
704.032	19.88475
704.219	12.63716
704.407	15.5762
704.595	19.21163
704.782	15.23788
704.97	13.98279
705.157	13.36894
705.345	20.8238
705.532	26.05278
705.719	17.45551
705.907	21.01211
706.094	17.57085
706.282	24.54613
706.469	17.51454
706.656	18.51001
706.844	17.38343
707.031	21.73934
707.218	20.61442
707.406	24.72017
707.593	21.83024
707.78	21.69405
707.968	19.69031
708.155	16.77196
708.342	22.27448
708.529	22.09823
708.716	21.51099
708.904	25.90647
709.091	21.96614
709.278	16.68194
709.465	25.70343
709.652	25.18416
709.839	23.91024
710.026	20.03517
710.213	13.22246
710.4	19.86977
710.587	21.50735
710.774	23.16431
710.961	22.50044
711.148	19.85549
711.335	22.4299
711.522	18.84727
711.709	20.69209
711.896	26.63317
712.083	23.39406
712.27	16.38377
712.457	20.40047
712.644	14.0037
712.831	27.51033
713.017	20.24506
713.204	22.13247
713.391	16.58194
713.578	22.51067
713.765	24.22149
713.951	20.50583
714.138	30.07355
714.325	19.50156
714.512	17.80503
714.698	14.24949
714.885	22.63779
715.072	17.9441
715.258	17.43048
715.445	14.94687
715.631	21.46588
715.818	7.42816
716.005	14.50761
716.191	19.05059
716.378	14.83301
716.564	19.37611
716.751	12.61115
716.937	14.9894
717.124	20.35097
717.31	13.15932
717.497	24.47014
717.683	13.59227
717.869	25.17361
718.056	14.37092
718.242	18.86417
718.429	15.76412
718.615	12.60159
718.801	16.61289
718.988	22.11234
719.174	19.67543
719.36	15.67329
719.547	21.67304
719.733	18.33904
719.919	16.67837
720.105	19.50854
720.291	16.93024
720.478	18.50609
720.664	15.98926
720.85	15.0274
721.036	29.6515
721.222	24.93847
721.408	16.98642
721.595	25.12775
721.781	24.05295
721.967	22.77119
722.153	25.38133
722.339	20.71989
722.525	19.5522
722.711	13.93091
722.897	12.28801
723.083	16.80443
723.269	22.88249
723.455	31.2297
723.641	36.18285
723.827	19.16042
724.012	20.39169
724.198	17.75665
724.384	24.53037
724.57	19.51917
724.756	12.13747
724.942	10.50266
725.127	23.21132
725.313	23.96411
725.499	24.10581
725.685	28.14473
725.87	20.46243
726.056	14.22837
726.242	25.14171
726.428	11.98508
726.613	23.37076
726.799	16.90437
726.985	14.17081
727.17	11.55838
727.356	28.2666
727.541	14.40584
727.727	17.78964
727.913	22.28067
728.098	17.01678
728.284	22.0962
728.469	13.4718
728.655	15.01665
728.84	24.55855
729.026	22.26649
729.211	22.52519
729.397	20.06113
729.582	22.64312
729.767	17.87667
729.953	20.28157
730.138	25.17018
730.323	8.63343
730.509	13.52785
730.694	26.27014
730.879	21.16493
731.065	19.8467
731.25	30.65011
731.435	21.45594
731.621	12.33868
731.806	17.06549
731.991	20.10652
732.176	13.27934
732.361	26.4304
732.547	20.65005
732.732	11.46663
732.917	30.22625
733.102	13.58347
733.287	15.87665
733.472	18.79806
733.657	18.19897
733.842	13.2664
734.027	16.21977
734.212	17.53558
734.397	15.64136
734.582	19.09627
734.767	22.9907
734.952	25.59019
735.137	7.70598
735.322	26.59937
735.507	20.77457
735.692	19.45775
735.877	30.41123
736.062	29.2926
736.247	20.62432
736.431	19.46852
736.616	24.97918
736.801	21.79676
736.986	20.0998
737.171	14.84396
737.355	14.23391
737.54	27.44301
737.725	20.69731
737.909	33.82659
738.094	17.47457
738.279	23.9985
738.463	18.98763
738.648	23.69683
738.833	22.07361
739.017	31.69926
739.202	19.08918
739.386	19.25964
739.571	15.46651
739.756	24.53888
739.94	20.12413
740.125	23.4879
740.309	16.4276
740.494	24.46411
740.678	21.41589
740.863	22.636
741.047	20.99539
741.231	29.12376
741.416	16.9839
741.6	29.04143
741.785	16.33714
741.969	24.40776
742.153	28.78828
742.338	9.48975
742.522	19.38835
742.706	26.14246
742.89	14.44353
743.075	20.42921
743.259	28.05329
743.443	27.71463
743.627	27.98733
743.812	33.64119
743.996	12.24926
744.18	20.19269
744.364	18.1697
744.548	34.70671
744.732	20.14829
744.916	25.73648
745.1	24.57301
745.285	19.56372
745.469	24.87409
745.653	30.64849
745.837	15.34605
746.021	35.2291
746.205	27.53839
746.389	22.32001
746.573	20.2379
746.757	30.28257
746.94	18.33103
747.124	28.69531
747.308	14.98041
747.492	28.28011
747.676	16.55392
747.86	36.781
748.044	19.08055
748.227	12.91801
748.411	46.1446
748.595	22.69383
748.779	17.36333
748.963	24.57787
749.146	23.21484
749.33	17.71931
749.514	16.97207
749.697	28.83338
749.881	16.83462
750.065	15.62114
750.248	22.29096
750.432	36.69714
750.616	21.67191
750.799	15.89249
750.983	37.70352
751.166	38.46813
751.35	14.12879
751.533	29.16133
751.717	33.03946
751.9	32.77463
752.084	20.45576
752.267	16.75151
752.451	17.70936
752.634	22.73575
752.818	25.958
753.001	28.20613
753.184	28.38531
753.368	24.73082
753.551	3.17833
753.734	17.52876
753.918	39.18252
754.101	18.48454
754.284	26.9744
754.467	19.9348
754.651	17.36276
754.834	16.82315
755.017	29.53196
755.2	30.36755
755.384	15.20463
755.567	26.45293
755.75	28.62181
755.933	19.53891
756.116	27.53504
756.299	18.17659
756.482	16.80921
756.665	26.0128
756.848	22.81964
757.032	24.60451
757.215	13.83412
757.398	16.32642
757.581	17.05612
757.764	41.48324
757.947	22.02383
758.129	28.70063
758.312	6.38648
758.495	21.97085
758.678	21.90832
758.861	20.75676
759.044	35.49742
759.227	16.4141
759.41	17.16672
759.592	26.79509
759.775	21.20961
759.958	28.37125
760.141	14.33642
760.324	37.59091
760.506	32.50462
760.689	28.06549
760.872	38.24836
761.054	25.02513
761.237	21.4229
761.42	24.40209
761.602	28.56205
761.785	25.21408
761.968	31.04511
762.15	34.64127
762.333	22.38557
762.515	26.1394
762.698	20.33793
762.88	28.52149
763.063	25.54994
763.245	30.29691
763.428	16.97686
763.61	19.61162
763.793	14.68848
763.975	24.27711
764.158	19.78197
764.34	18.61509
764.522	16.40128
764.705	19.87662
764.887	31.95109
765.069	11.95187
765.252	25.09339
765.434	26.52718
765.616	22.5248
765.799	17.81716
765.981	26.73249
766.163	16.90621
766.345	31.29372
766.528	17.8053
766.71	8.86171
766.892	23.65933
767.074	32.01194
767.256	20.39328
767.438	36.06267
767.62	24.00858
767.802	40.13771
767.985	27.24361
768.167	36.41332
768.349	18.47872
768.531	28.25404
768.713	25.84111
768.895	29.71271
769.077	26.24221
769.259	43.76971
769.441	62.29374
769.623	29.52904
769.804	35.84545
769.986	33.98941
770.168	41.28876
770.35	52.50079
770.532	37.25964
770.714	41.54583
770.896	41.69947
771.077	14.625
771.259	43.45506
771.441	39.35378
771.623	44.59853
771.804	58.51828
771.986	18.11048
772.168	29.21317
772.35	44.6021
772.531	62.28393
772.713	36.62401
772.894	49.12444
773.076	36.35486
773.258	29.02683
773.439	49.47667
773.621	56.91256
773.802	23.88802
773.984	27.59318
774.166	37.69923
774.347	54.2504
774.529	47.55813
774.71	15.32962
774.891	34.0301
775.073	31.98991
775.254	49.59815
775.436	28.16746
775.617	62.34547
775.799	30.77022
775.98	51.79838
776.161	55.96835
776.343	58.86542
776.524	35.72538
776.705	32.21822
776.886	17.89901
777.068	37.1483
777.249	86.0488
777.43	58.30978
777.611	22.42561
777.793	31.5231
777.974	59.49328
778.155	29.90879
778.336	23.14544
778.517	66.37512
778.698	26.75188
778.879	15.41471
779.061	6.77225
779.242	41.54514
779.423	41.95048
779.604	29.45501
779.785	32.91609
779.966	38.22238
780.147	49.61284
780.328	50.43605
780.509	68.44794
780.69	46.93399
780.871	29.74225
781.051	19.40617
781.232	37.43213
781.413	37.87483
781.594	32.16399
781.775	30.60971
781.956	28.04649
782.137	14.51362
782.317	30.86282
782.498	37.68031
782.679	37.7764
782.86	38.12998
783.04	28.76623
783.221	38.95454
783.402	62.80246
783.583	35.91729
783.763	46.18355
783.944	30.50657
784.124	21.45339
784.305	58.83901
784.486	44.27431
784.666	34.98448
784.847	19.15408
785.027	81.05753
785.208	28.94368
785.388	27.46516
785.569	28.75164
785.749	34.50704
785.93	30.06805
786.11	20.14078
786.291	42.03189
786.471	39.06125
786.652	47.83507
786.832	35.55971
787.012	37.68872
787.193	21.39174
787.373	36.99382
787.553	30.09898
787.734	38.89824
787.914	30.62172
788.094	50.17574
788.275	39.66868
788.455	32.20779
788.635	22.87273
788.815	37.48495
788.995	23.93971
789.176	19.66361
789.356	26.77397
789.536	33.08359
789.716	41.26634
789.896	26.80621
790.076	28.94631
790.256	39.19363
790.436	11.57751
790.616	22.61003
790.796	40.71064
790.976	30.32077
791.156	26.63503
791.336	42.82665
791.516	38.62062
791.696	32.9397
791.876	19.96344
792.056	38.20519
792.236	48.08904
792.416	44.94367
792.596	40.42439
792.776	43.4257
792.956	44.93502
793.135	59.5511
793.315	22.45821
793.495	49.11271
793.675	45.52857
793.854	45.08144
794.034	49.78639
794.214	22.99926
794.394	44.70627
794.573	52.61227
794.753	38.96631
794.933	25.63719
795.112	40.03798
795.292	48.99685
795.472	58.62382
795.651	21.18716
795.831	35.99769
796.01	31.88038
796.19	32.76269
796.369	34.50424
796.549	40.73659
796.728	32.44251
796.908	21.0992
797.087	23.52783
797.267	32.73106
797.446	24.11053
797.626	40.86164
797.805	41.65585
797.984	26.3472
798.164	44.68888
798.343	26.46378
798.522	37.84938
798.702	37.73982
798.881	22.58734
799.06	32.03862
799.239	14.36611
799.419	24.42892
799.598	57.44473
799.777	41.50855
799.956	50.74815
800.136	32.69365
800.315	26.30097
800.494	40.40033
800.673	47.48715
800.852	45.10747
801.031	51.369
801.21	41.61447
801.389	29.82694
801.568	38.04392
801.747	62.26103
801.926	35.57393
802.105	54.31176
802.284	30.46441
802.463	55.99441
802.642	40.21265
802.821	39.11816
803	55.56587
803.179	48.83827
803.358	49.80439
803.537	28.67686
803.716	36.54241
803.895	30.14765
804.073	33.00811
804.252	27.38622
804.431	41.28048
804.61	34.30673
804.789	45.81178
804.967	30.33219
805.146	29.29061
805.325	66.11547
805.503	40.85299
805.682	20.761
805.861	80.66708
806.039	56.04563
806.218	28.69325
806.397	39.17536
806.575	34.11675
806.754	40.42743
806.932	25.21555
807.111	50.1994
807.289	48.48266
807.468	37.05155
807.646	49.08487
807.825	43.27589
808.003	39.11927
808.182	50.54632
808.36	37.88422
808.539	27.09414
808.717	58.17229
808.895	27.47615
809.074	41.88121
809.252	35.37728
809.43	43.96474
809.609	51.75338
809.787	54.87925
809.965	34.13672
810.144	36.63182
810.322	34.81703
810.5	42.56789
810.678	32.58908
810.856	68.11475
811.035	53.30108
811.213	45.58392
811.391	54.7601
811.569	39.08482
811.747	90.50293
811.925	52.76939
812.103	27.89513
812.281	35.87981
812.459	64.11655
812.637	61.06958
812.816	49.82002
812.994	70.07321
813.171	57.47757
813.349	44.77448
813.527	54.06788
813.705	58.92799
813.883	76.38167
814.061	49.00204
814.239	63.30967
814.417	72.14884
814.595	49.05089
814.773	47.65032
814.95	41.04784
815.128	46.8343
815.306	41.40707
815.484	36.88152
815.662	27.92201
815.839	25.97306
816.017	34.21508
816.195	55.62429
816.372	34.50135
816.55	51.13854
816.728	59.67569
816.905	37.70283
817.083	63.64454
817.261	39.48426
817.438	84.12481
817.616	65.75057
817.793	32.25296
817.971	51.77237
818.148	49.17283
818.326	58.71071
818.503	44.66512
818.681	65.00451
818.858	36.09569
819.036	39.89616
819.213	43.3948
819.391	30.94344
819.568	31.17323
819.745	26.77052
819.923	51.99719
820.1	35.1492
820.277	29.71102
820.455	34.43736
820.632	38.50251
820.809	40.94899
820.986	25.63191
821.164	20.3058
821.341	17.92816
821.518	28.8804
821.695	19.88306
821.872	17.51667
822.05	14.94962
822.227	11.60745
822.404	12.14939
822.581	14.47453
822.758	11.20703
822.935	11.57573
823.112	13.21665
823.289	10.36797
823.466	12.95536
823.643	11.82707
823.82	14.79447
823.997	12.78603
824.174	15.04059
824.351	21.78064
824.528	20.00534
824.705	17.47875
824.882	20.07255
825.059	28.05451
825.236	18.78956
825.412	19.51302
825.589	25.42642
825.766	38.4425
825.943	21.61124
826.12	26.54907
826.296	18.70224
826.473	24.74742
826.65	24.45594
826.827	30.29222
827.003	19.66001
827.18	21.95725
827.357	25.40328
827.533	20.77314
827.71	10.51215
827.887	17.78126
828.063	20.59243
828.24	16.85859
828.416	23.99473
828.593	19.17381
828.769	28.20373
828.946	29.25325
829.122	30.49727
829.299	29.86762
829.475	17.52672
829.652	27.72505
829.828	49.4086
830.005	32.05794
830.181	41.50866
830.357	30.19542
830.534	46.51189
830.71	33.58012
830.886	44.9025
831.063	41.972
831.239	55.11133
831.415	24.35707
831.592	57.10775
831.768	37.0589
831.944	30.40684
832.12	62.70141
832.296	58.27594
832.473	48.12104
832.649	31.95483
832.825	49.85051
833.001	28.69507
833.177	42.61017
833.353	38.83234
833.529	22.03243
833.705	35.27814
833.881	22.84592
834.058	21.66054
834.234	22.96375
834.41	22.8151
834.586	17.39784
834.761	21.59779
834.937	24.58547
835.113	25.0421
835.289	21.00277
835.465	25.24153
835.641	21.80985
835.817	25.84246
835.993	43.06544
836.169	22.73183
836.344	34.83206
836.52	41.1058
836.696	37.37473
836.872	28.13263
837.048	86.9932
837.223	32.46218
837.399	67.12895
837.575	48.5049
837.75	47.34203
837.926	66.29276
838.102	99.98359
838.277	79.8042
838.453	111.36284
838.628	113.37449
838.804	42.04697
838.98	95.47435
839.155	48.7946
839.331	66.63286
839.506	48.36864
839.682	50.08034
839.857	68.49775
840.033	80.24886
840.208	39.64565
840.384	17.44669
840.559	37.38933
840.734	58.96476
840.91	75.38704
841.085	46.6774
841.26	45.20595
841.436	39.99439
841.611	40.09015
841.786	60.73451
841.962	79.49455
842.137	51.97875
842.312	28.11999
842.487	44.09631
842.663	39.60966
842.838	46.07569
843.013	150.11698
843.188	72.45771
843.363	77.99416
843.538	124.88803
843.714	123.42642
843.889	127.87285
844.064	137.63371
844.239	113.39444
844.414	129.66981
844.589	89.51084
844.764	161.57003
844.939	159.38567
845.114	173.76
845.289	164.2864
845.464	226.87413
845.639	155.37749
845.814	71.27187
845.989	85.41828
846.163	110.12662
846.338	113.30063
846.513	161.12533
846.688	103.58368
846.863	110.67091
847.038	94.81919
847.212	110.94638
847.387	113.47742
847.562	118.18575
847.737	148.49959
847.911	56.54547
848.086	67.47083
848.261	237.24851
848.435	102.26918
848.61	152.3276
848.785	72.65319
848.959	155.31281
849.134	216.6192
849.308	223.87505
849.483	115.95236
849.658	194.401
849.832	99.05946
850.007	83.48398
850.181	249.68991
850.356	89.4778
850.53	229.0481
850.705	77.68151
850.879	42.29496
851.053	112.39672
851.228	101.44838
851.402	130.5507
851.577	173.03968
851.751	188.46253
851.925	122.5404
852.099	52.83422
852.274	88.0044
852.448	110.48241
852.622	145.9475
852.797	116.47196
852.971	110.70559
853.145	118.13467
853.319	347.77052
853.493	179.86863
853.668	98.81084
853.842	224.7809
854.016	178.38057
854.19	211.14504
854.364	126.23225
854.538	133.48096
854.712	183.14283
854.886	112.58057
855.06	103.41729
855.234	34.65222
855.408	199.8036
855.582	161.16591
855.756	161.41573
855.93	217.61838
856.104	144.18371
856.278	165.00347
856.452	116.77914
856.626	165.99654
856.8	267.7335
856.973	149.52819
857.147	146.50518
857.321	144.27411
857.495	173.86346
857.669	124.489
857.842	100.47521
858.016	175.53525
858.19	84.153
858.364	288.46855
858.537	105.54163
858.711	134.96712
858.885	113.06592
859.058	100.67506
859.232	51.692
859.405	63.86291
859.579	165.35461
859.753	136.43651
859.926	93.35858
860.1	60.59053
860.273	124.98915
860.447	215.45326
860.62	111.13968
860.794	250.79968
860.967	142.98385
861.141	178.41511
861.314	267.05854
861.487	150.24925
861.661	204.08369
861.834	205.60729
862.008	180.513
862.181	128.85963
862.354	135.37671
862.528	150.4599
862.701	100.83428
862.874	71.98785
863.047	107.37821
863.221	113.17157
863.394	44.397
863.567	203.21292
863.74	46.22815
863.913	167.76895
864.087	143.92232
864.26	181.32736
864.433	123.01376
864.606	227.67716
864.779	126.98875
864.952	58.17755
865.125	100.09573
865.298	120.79005
865.471	127.99299
865.644	266.07629
865.817	207.13376
865.99	171.64183
866.163	193.3434
866.336	108.31868
866.509	118.5629
866.682	107.40125
866.855	188.52336
867.028	77.83757
867.2	156.70408
867.373	47.51463
867.546	138.51651
867.719	268.29659
867.892	162.07619
868.064	88.11677
868.237	146.31479
868.41	125.20418
868.583	71.71244
868.755	75.19671
868.928	120.31022
869.101	275.99338
869.273	191.90881
869.446	160.28136
869.619	190.05357
869.791	121.20041
869.964	186.3822
870.136	178.70569
870.309	133.39533
870.481	139.5548
870.654	67.03678
870.826	142.49146
870.999	108.472
871.171	173.3375
871.344	104.05364
871.516	131.15414
871.689	94.21553
871.861	141.46019
872.033	96.77318
872.206	112.63267
872.378	180.79263
872.55	112.14896
872.723	75.02916
872.895	115.47072
873.067	187.90303
873.24	204.34731
873.412	105.31634
873.584	114.87085
873.756	104.92537
873.928	149.03692
874.101	149.21435
874.273	158.98091
874.445	53.83428
874.617	76.5451
874.789	143.90165
874.961	115.68917
875.133	154.14186
875.305	133.43674
875.477	79.30425
875.649	68.39898
875.821	87.29245
875.993	223.73852
876.165	88.21342
876.337	144.10628
876.509	112.44313
876.681	149.89015
876.853	139.07512
877.025	146.62046
877.197	90.51723
877.369	86.54164
877.541	177.5819
877.712	47.28243
877.884	80.99091
878.056	157.65006
878.228	85.7684
878.4	152.68514
878.571	86.55069
878.743	57.47755
878.915	144.11939
879.086	79.47378
879.258	101.93143
879.43	90.51062
879.601	82.23569
879.773	86.98524
879.945	18.97915
880.116	36.05465
880.288	21.76148
880.459	26.08737
880.631	18.37174
880.802	22.50732
880.974	21.20222
881.145	14.36391
881.317	19.9244
881.488	14.16415
881.66	15.93968
881.831	14.22138
882.002	20.79335
882.174	14.31527
882.345	19.23917
882.517	8.49751
882.688	22.47683
882.859	18.37262
883.03	30.91667
883.202	29.09423
883.373	23.39485
883.544	23.8488
883.715	44.90603
883.887	34.23869
884.058	29.37364
884.229	44.99392
884.4	44.31698
884.571	52.95224
884.742	44.27605
884.914	48.31184
885.085	72.28834
885.256	94.47183
885.427	71.6055
885.598	87.86613
885.769	93.84964
885.94	90.46576
886.111	55.5861
886.282	109.17723
886.453	86.27036
886.624	59.5974
886.795	108.79913
886.966	92.98262
887.136	116.94936
887.307	90.28257
887.478	156.14507
887.649	124.16637
887.82	135.13145
887.991	107.03761
888.161	150.99812
888.332	140.29293
888.503	69.59266
888.674	195.11063
888.844	210.70954
889.015	165.21992
889.186	75.12362
889.356	196.31515
889.527	69.7038
889.698	347.45933
889.868	112.72588
890.039	144.64096
890.209	130.49347
890.38	171.22921
890.551	142.2966
890.721	205.3923
890.892	168.38927
891.062	112.47514
891.233	153.96274
891.403	110.68335
891.574	85.88858
891.744	114.125
891.914	159.29431
892.085	133.58222
892.255	41.63646
892.425	213.80617
892.596	157.50175
892.766	145.6216
892.936	206.14342
893.107	174.78753
893.277	91.39201
893.447	69.05536
893.618	51.15936
893.788	115.6676
893.958	54.3182
894.128	60.34173
894.298	68.07855
894.468	96.81983
894.639	44.45779
894.809	27.28756
894.979	48.47505
895.149	54.42187
895.319	45.27355
895.489	59.90698
895.659	79.67265
895.829	51.87336
895.999	54.9814
896.169	37.15967
896.339	49.28216
896.509	105.06816
896.679	121.19699
896.849	116.27045
897.019	168.2499
897.189	127.46749
897.358	108.7663
897.528	169.55491
897.698	51.29236
897.868	152.85462
898.038	266.81742
898.208	246.55167
898.377	72.21264
898.547	250.93068
898.717	404.221
898.886	143.73677
899.056	246.08801
899.226	375.15251
899.395	217.92703
899.565	295.57417
899.735	196.59234
899.904	315.62604
900.074	274.63768
900.244	118.52284
900.413	497.13434
900.583	107.86172
900.752	184.91665
900.922	299.91037
901.091	22.92175
901.261	257.22523
901.43	239.91339
901.599	235.33975
901.769	542.9662
901.938	285.33384
902.108	272.946
902.277	359.35496
902.446	95.17488
902.616	110.47768
902.785	167.68295
902.954	284.79207
903.124	194.21893
903.293	143.81184
903.462	77.83306
903.631	112.87093
903.801	83.4972
903.97	42.78043
904.139	79.03621
904.308	54.64222
904.477	43.00266
904.646	24.7018
904.816	40.85629
904.985	61.64869
905.154	96.52024
