Data from WindowProjectSample_Transmission__20__00020.txt Node

Date: Sat May 03 15:14:42 EDT 2025
User: jessi
Spectrometer: SR400872
Trigger mode: 0
Integration Time (sec): 5.000010E-1
Scans to average: 6
Electric dark correction enabled: true
Nonlinearity correction enabled: true
Boxcar width: 0
XAxis mode: Wavelengths
Number of Pixels in Spectrum: 3648
>>>>>Begin Spectral Data<<<<<
184.909	18399.9074
185.132	2585.90893
185.355	24078.49694
185.578	-8287.86601
185.801	184.23278
186.024	-1447.10036
186.247	748.25423
186.47	2070.93706
186.693	-140.11523
186.916	-1925.15068
187.139	-2596.53612
187.362	1543.68839
187.585	3325.76239
187.808	-3700.29558
188.031	-1353.88935
188.254	-1292.21092
188.476	-865.33229
188.699	2670.56139
188.922	-465.56683
189.145	-9851.66308
189.368	-338.64695
189.591	-999.77594
189.813	-1745.32817
190.036	1193.40394
190.259	1750.35214
190.482	551.06188
190.705	10487.43534
190.927	-972.4836
191.15	3391.89751
191.373	2270.23499
191.595	-2284.66212
191.818	2524.73881
192.041	-179.43184
192.263	2628.677
192.486	1791.73842
192.709	-5491.81745
192.931	2762.77348
193.154	-6380.07936
193.377	200222.87943
193.599	1477.12543
193.822	1802.20422
194.044	-2245.96528
194.267	417.53276
194.489	-265.81463
194.712	1398.63991
194.934	3268.35962
195.157	-15727.79129
195.379	787.50265
195.602	2160.50543
195.824	1954.22831
196.047	2816.04998
196.269	2817.12759
196.492	3409.87696
196.714	2903.26931
196.936	1138.68469
197.159	1362.3829
197.381	-2284.56568
197.604	-839.90447
197.826	6269.42214
198.048	3130.93114
198.271	4383.97999
198.493	2053.55634
198.715	-5749.59117
198.938	-543.61203
199.16	1826.33362
199.382	1440.81184
199.604	-608.64009
199.827	9050.27543
200.049	944.65088
200.271	-3172.34218
200.493	-53068.0886
200.715	2139.48267
200.938	6886.78054
201.16	-6919.84082
201.382	-3234.75334
201.604	-1906.05085
201.826	6630.6357
202.048	843.11416
202.27	-15612.72222
202.492	4813.18033
202.715	-1106.68388
202.937	4589.89747
203.159	-2227.91983
203.381	863.30886
203.603	-3607.42891
203.825	-2581.3997
204.047	3015.27229
204.269	-1957.90204
204.491	2185.31015
204.713	2010.56971
204.935	15577.82864
205.156	1722.18748
205.378	-8245.74841
205.6	-4442.79515
205.822	8977.94717
206.044	-683.84346
206.266	3872.54182
206.488	1124.50554
206.71	28046.40709
206.932	2120.10346
207.153	-4719.87204
207.375	-1772.36375
207.597	8502.41415
207.819	4280.02985
208.041	2317.71982
208.262	-2186.03423
208.484	-1161.28973
208.706	-2359.73993
208.927	26691.03843
209.149	937.20162
209.371	-6471.32787
209.593	924.93131
209.814	5416.34573
210.036	-2910.1838
210.258	-5772.3303
210.479	-1089.93438
210.701	1020.89156
210.922	6481.3416
211.144	-1160.91807
211.366	-5780.55237
211.587	-579.96616
211.809	9153.5574
212.03	-1174.82432
212.252	-1603.52063
212.473	696.70318
212.695	-2195.62701
212.916	2771.23086
213.138	3852.76954
213.359	-1795.2604
213.581	6400.25236
213.802	-1618.415
214.024	16055.00752
214.245	-3110.89149
214.466	-325.07381
214.688	1648.86336
214.909	790.03776
215.131	-90919.56061
215.352	1437.42394
215.573	2522.23741
215.795	3085.68583
216.016	4112.60124
216.237	-543.08613
216.459	5949.7967
216.68	101426.8645
216.901	-82519.11958
217.122	1723.51458
217.344	6095.01086
217.565	-57918.06107
217.786	1517.43766
218.007	1969.85344
218.228	-1017.13165
218.45	-1227.12547
218.671	-1135.13586
218.892	1073.47924
219.113	-18133.04959
219.334	-521.95779
219.555	-4637.20183
219.776	1523.06051
219.997	3404.47963
220.219	1010.65893
220.44	2506.20873
220.661	-3156.6371
220.882	3359.61113
221.103	-1119.07197
221.324	956.10676
221.545	2227.71601
221.766	-5878.5429
221.987	3255.89907
222.208	-1792.28203
222.429	3445.78302
222.65	-88.16471
222.87	-570.74434
223.091	8117.1547
223.312	2681.95751
223.533	6078.36824
223.754	1861.16836
223.975	1445.15195
224.196	-11387.51031
224.417	939.73155
224.637	970.72581
224.858	-402.85219
225.079	6786.69754
225.3	601.63485
225.521	2084.41285
225.741	1597.43162
225.962	805.26169
226.183	309.9854
226.404	654.48879
226.624	598.10638
226.845	368.58274
227.066	400.5947
227.286	183.40216
227.507	94.67161
227.728	82.06325
227.948	126.49375
228.169	35.58757
228.389	45.11255
228.61	23.73588
228.831	34.70477
229.051	3.55498
229.272	21.92828
229.492	31.25529
229.713	9.29266
229.933	23.38091
230.154	19.26888
230.374	29.72699
230.595	21.76135
230.815	16.17735
231.036	22.19728
231.256	-5.12737
231.477	42.29428
231.697	23.75305
231.917	22.81121
232.138	34.12337
232.358	69.41962
232.579	60.88485
232.799	6.60421
233.019	64.22406
233.24	76.87093
233.46	23.23641
233.68	38.38527
233.901	30.27272
234.121	17.51992
234.341	4.40614
234.561	-8.77798
234.782	14.10559
235.002	44.90454
235.222	-1.1263
235.442	37.41635
235.662	19.88092
235.883	44.6262
236.103	37.07747
236.323	23.98543
236.543	19.38171
236.763	27.06439
236.983	26.29451
237.203	29.60202
237.423	43.2446
237.643	58.58002
237.864	50.67742
238.084	14.35953
238.304	21.62537
238.524	30.24984
238.744	29.96498
238.964	47.18168
239.184	43.38785
239.404	45.42177
239.624	24.02783
239.843	39.85574
240.063	23.63203
240.283	15.96115
240.503	17.62408
240.723	15.90645
240.943	8.70381
241.163	13.60908
241.383	10.32239
241.603	5.38172
241.822	6.2321
242.042	4.69344
242.262	6.31619
242.482	6.1117
242.702	7.60529
242.921	2.00742
243.141	5.84921
243.361	4.63653
243.581	7.86491
243.8	5.78468
244.02	4.14669
244.24	7.81147
244.459	7.1299
244.679	14.62106
244.899	9.179
245.118	9.76827
245.338	8.4592
245.558	10.43315
245.777	6.01337
245.997	7.11334
246.216	7.5843
246.436	3.92605
246.655	3.00948
246.875	2.40579
247.094	4.66794
247.314	1.42362
247.533	2.60806
247.753	3.55304
247.972	2.82239
248.192	1.18712
248.411	1.7885
248.631	3.05099
248.85	3.92989
249.07	2.62995
249.289	5.02642
249.508	3.82835
249.728	5.66488
249.947	6.18027
250.166	6.83401
250.386	3.98935
250.605	5.5098
250.824	8.38261
251.044	6.02896
251.263	20.64312
251.482	10.44808
251.701	9.61444
251.921	0.13969
252.14	2.91119
252.359	3.72625
252.578	8.36928
252.798	3.04425
253.017	7.49899
253.236	3.79794
253.455	4.46767
253.674	9.80968
253.893	4.04856
254.112	6.03274
254.331	9.25066
254.551	6.87381
254.77	3.56974
254.989	11.58392
255.208	10.21938
255.427	12.25947
255.646	11.21468
255.865	17.89188
256.084	6.64224
256.303	7.89185
256.522	12.06113
256.741	2.61384
256.96	3.00261
257.179	6.47699
257.397	8.43417
257.616	4.09148
257.835	4.83399
258.054	11.96895
258.273	7.65895
258.492	8.84746
258.711	5.36584
258.93	2.29284
259.148	3.03288
259.367	3.41422
259.586	4.34257
259.805	2.10013
260.023	4.27413
260.242	3.16209
260.461	2.27099
260.68	1.19649
260.898	3.8047
261.117	1.11175
261.336	0.94357
261.554	3.08938
261.773	3.03647
261.992	0.80316
262.21	2.73818
262.429	3.7378
262.648	6.00828
262.866	6.68933
263.085	4.90529
263.303	4.25776
263.522	7.07938
263.74	7.57977
263.959	12.7638
264.178	6.6606
264.396	6.23532
264.615	4.18
264.833	9.95368
265.051	8.42148
265.27	8.59012
265.488	9.30517
265.707	5.43798
265.925	8.91165
266.144	3.94809
266.362	5.08752
266.58	4.89355
266.799	3.74104
267.017	5.04919
267.235	4.89313
267.454	2.86446
267.672	1.74367
267.89	3.61997
268.109	3.98608
268.327	3.68891
268.545	0.97384
268.763	4.03857
268.982	1.43232
269.2	4.38823
269.418	2.44387
269.636	1.85229
269.854	3.52311
270.073	2.7086
270.291	1.37216
270.509	1.22811
270.727	3.63124
270.945	6.28748
271.163	6.23497
271.381	1.34016
271.599	2.56315
271.817	4.39717
272.036	1.72709
272.254	2.50529
272.472	2.16497
272.69	2.31822
272.908	2.05286
273.126	3.70774
273.344	4.81442
273.562	1.69586
273.779	2.17973
273.997	3.19351
274.215	3.82586
274.433	2.73382
274.651	4.03601
274.869	4.05957
275.087	2.43089
275.305	3.7791
275.523	1.85183
275.74	2.71945
275.958	4.87413
276.176	6.75933
276.394	2.22736
276.612	3.18741
276.829	2.72817
277.047	2.03794
277.265	2.70723
277.483	3.15656
277.7	3.88131
277.918	3.07052
278.136	5.57494
278.353	2.62351
278.571	1.55958
278.789	4.34482
279.006	0.61344
279.224	2.35262
279.442	4.38492
279.659	2.72308
279.877	2.16319
280.094	4.64745
280.312	0.5977
280.529	3.10754
280.747	0.79614
280.964	2.36142
281.182	5.3586
281.399	2.46762
281.617	3.24519
281.834	2.32564
282.052	1.8831
282.269	2.76782
282.487	2.30755
282.704	2.0414
282.921	1.85297
283.139	2.84727
283.356	3.58232
283.574	3.19236
283.791	1.73644
284.008	4.63213
284.226	2.56007
284.443	2.83099
284.66	3.53027
284.877	3.01193
285.095	2.00676
285.312	1.52789
285.529	0.88426
285.746	0.75803
285.964	1.79154
286.181	1.08231
286.398	1.77146
286.615	2.49194
286.832	2.33598
287.05	0.8651
287.267	1.62184
287.484	1.91253
287.701	2.47523
287.918	2.36077
288.135	2.36349
288.352	1.1715
288.569	1.37622
288.786	2.17734
289.003	1.57584
289.22	2.54711
289.437	1.52746
289.654	2.55079
289.871	2.66998
290.088	2.59356
290.305	1.93427
290.522	1.55497
290.739	1.96227
290.956	2.91996
291.173	3.30435
291.39	3.19704
291.607	2.29804
291.824	1.59398
292.04	1.21717
292.257	2.534
292.474	3.04777
292.691	1.64925
292.908	1.01563
293.125	1.79947
293.341	1.06434
293.558	4.59465
293.775	1.9185
293.992	2.05872
294.208	0.80304
294.425	1.08205
294.642	1.62174
294.858	2.38894
295.075	0.56556
295.292	1.88526
295.508	2.06265
295.725	3.45826
295.942	1.61423
296.158	1.15799
296.375	1.92259
296.591	1.44014
296.808	1.57882
297.024	1.75381
297.241	2.07722
297.458	2.20535
297.674	0.27201
297.891	1.76114
298.107	1.23903
298.323	0.98018
298.54	2.60746
298.756	1.17714
298.973	0.49443
299.189	2.56652
299.406	1.09721
299.622	2.65816
299.838	2.69372
300.055	2.48969
300.271	0.64541
300.487	0.73474
300.704	1.04902
300.92	0.77304
301.136	3.65006
301.353	2.54511
301.569	1.85754
301.785	2.0021
302.001	2.48975
302.218	2.2176
302.434	1.86825
302.65	0.71018
302.866	1.3274
303.083	3.47853
303.299	3.19149
303.515	1.69608
303.731	1.87931
303.947	0.74731
304.163	1.02282
304.379	2.07067
304.595	2.16774
304.812	1.3993
305.028	1.08733
305.244	1.6316
305.46	2.55448
305.676	2.67819
305.892	3.09027
306.108	1.9152
306.324	1.47954
306.54	3.4649
306.756	2.28548
306.972	2.27532
307.187	1.61561
307.403	3.22225
307.619	1.22852
307.835	2.58434
308.051	3.18205
308.267	0.68794
308.483	2.60822
308.699	2.20833
308.914	1.89213
309.13	1.79828
309.346	0.47058
309.562	0.85026
309.778	0.55488
309.993	2.2651
310.209	1.69273
310.425	0.72378
310.641	1.60447
310.856	0.76686
311.072	0.8412
311.288	1.59694
311.503	1.75334
311.719	0.28748
311.935	0.16391
312.15	2.02448
312.366	1.78222
312.581	2.30978
312.797	1.71822
313.013	2.26615
313.228	1.35253
313.444	1.85935
313.659	1.27524
313.875	2.01318
314.09	1.69089
314.306	2.67831
314.521	2.39188
314.737	2.29189
314.952	2.05094
315.168	1.68684
315.383	2.44874
315.599	1.54343
315.814	1.27157
316.029	2.40986
316.245	0.55825
316.46	0.54502
316.675	3.01331
316.891	3.47515
317.106	4.26245
317.321	2.51536
317.537	2.11812
317.752	2.36181
317.967	2.5035
318.183	1.13251
318.398	1.59354
318.613	2.74574
318.828	3.01098
319.043	2.4582
319.259	1.40962
319.474	2.23854
319.689	2.8656
319.904	0.35242
320.119	2.50697
320.334	2.26782
320.549	1.58707
320.765	2.90938
320.98	2.09156
321.195	2.7974
321.41	1.73017
321.625	2.58909
321.84	3.68642
322.055	3.62162
322.27	1.55035
322.485	0.82906
322.7	1.92071
322.915	2.76854
323.13	1.16805
323.345	3.19754
323.56	2.56007
323.775	2.5282
323.989	2.42647
324.204	1.99761
324.419	2.58757
324.634	0.73161
324.849	1.76306
325.064	4.16258
325.279	2.82318
325.493	2.58708
325.708	2.97021
325.923	1.1153
326.138	1.10063
326.352	3.36272
326.567	2.77314
326.782	1.57996
326.997	1.15258
327.211	2.25604
327.426	2.34806
327.641	1.51136
327.855	0.46372
328.07	2.49176
328.285	3.29728
328.499	1.64909
328.714	2.39103
328.928	2.66335
329.143	1.9219
329.358	2.91926
329.572	2.81858
329.787	3.10585
330.001	4.21154
330.216	0.69175
330.43	3.32734
330.645	3.38029
330.859	2.61241
331.074	1.29
331.288	2.07564
331.503	3.21789
331.717	1.00113
331.931	1.96723
332.146	1.92743
332.36	3.46705
332.575	2.40396
332.789	2.03033
333.003	1.88289
333.218	2.52433
333.432	1.48185
333.646	2.46675
333.86	3.29575
334.075	3.276
334.289	1.75985
334.503	1.28785
334.717	2.44561
334.932	2.41103
335.146	3.19886
335.36	1.68929
335.574	2.52387
335.788	2.46607
336.003	3.15702
336.217	2.51689
336.431	2.50641
336.645	1.38146
336.859	0.89764
337.073	1.73125
337.287	2.21823
337.501	1.0995
337.715	2.11327
337.929	2.55822
338.143	1.11181
338.357	2.03489
338.571	1.07948
338.785	2.20912
338.999	1.50714
339.213	1.70373
339.427	0.86355
339.641	2.84676
339.855	1.76907
340.069	1.49926
340.283	3.01924
340.497	3.49846
340.711	2.26083
340.924	1.50742
341.138	0.96319
341.352	0.84831
341.566	2.08948
341.78	0.81939
341.993	1.46616
342.207	1.08494
342.421	2.2729
342.635	2.00446
342.848	1.37115
343.062	0.08104
343.276	1.30946
343.49	3.81846
343.703	1.36478
343.917	2.54074
344.131	2.61957
344.344	1.35759
344.558	1.45388
344.771	1.1873
344.985	3.23717
345.199	3.2709
345.412	2.03277
345.626	2.27246
345.839	0.52561
346.053	0.95407
346.266	0.92429
346.48	2.62438
346.693	2.01635
346.907	2.38478
347.12	1.21126
347.334	2.02641
347.547	2.32642
347.76	1.59383
347.974	2.8735
348.187	2.11564
348.401	1.60971
348.614	1.44727
348.827	1.57211
349.041	2.48764
349.254	0.49834
349.467	1.63915
349.681	0.66747
349.894	1.42802
350.107	2.94079
350.32	3.13871
350.534	0.48393
350.747	1.4316
350.96	1.08353
351.173	1.15578
351.386	1.67049
351.6	1.56294
351.813	1.29028
352.026	1.95839
352.239	0.73867
352.452	1.4815
352.665	2.18332
352.878	1.59618
353.092	3.67993
353.305	2.2447
353.518	1.93367
353.731	1.03859
353.944	2.96645
354.157	1.21547
354.37	0.96214
354.583	0.78599
354.796	0.54906
355.009	2.71454
355.222	1.63094
355.435	1.86163
355.647	2.50338
355.86	0.88191
356.073	1.57317
356.286	1.23802
356.499	2.37121
356.712	2.02194
356.925	1.97311
357.138	2.49252
357.35	0.79744
357.563	1.30344
357.776	1.72324
357.989	1.24779
358.201	2.02153
358.414	1.55474
358.627	2.60378
358.84	1.36189
359.052	0.82546
359.265	0.80314
359.478	2.53147
359.69	-0.40598
359.903	2.0024
360.116	2.22345
360.328	0.3766
360.541	2.25707
360.753	0.76619
360.966	1.06085
361.179	1.16677
361.391	1.02654
361.604	0.66638
361.816	1.11443
362.029	0.95736
362.241	0.82891
362.454	0.9364
362.666	0.81459
362.879	1.37197
363.091	1.25496
363.304	0.83291
363.516	1.47582
363.728	0.5708
363.941	1.77424
364.153	0.82059
364.366	-0.13927
364.578	0.70554
364.79	1.71132
365.003	1.35843
365.215	1.24381
365.427	1.80304
365.639	2.39353
365.852	1.70669
366.064	3.01087
366.276	1.0665
366.488	1.91681
366.701	1.19141
366.913	1.32541
367.125	1.33349
367.337	0.92611
367.549	1.14764
367.762	1.5441
367.974	1.56071
368.186	0.76501
368.398	2.28565
368.61	1.9769
368.822	1.96581
369.034	1.37178
369.246	2.00557
369.458	3.138
369.67	0.78623
369.882	2.92642
370.094	0.02757
370.306	2.72026
370.518	1.23477
370.73	0.75774
370.942	0.96737
371.154	1.18161
371.366	0.90739
371.578	1.67724
371.79	0.70402
372.002	2.32662
372.214	2.67784
372.425	1.64739
372.637	2.28678
372.849	1.36519
373.061	-0.08489
373.273	1.63057
373.484	1.88839
373.696	2.0965
373.908	0.0141
374.12	2.13725
374.331	1.77999
374.543	0.83746
374.755	0.60409
374.967	1.54974
375.178	1.9615
375.39	1.3203
375.602	1.54286
375.813	0.64931
376.025	0.26447
376.236	1.34254
376.448	1.42401
376.66	0.93996
376.871	1.01242
377.083	2.16483
377.294	2.09362
377.506	0.86866
377.717	2.20599
377.929	1.47002
378.14	0.60968
378.352	1.79386
378.563	1.67094
378.775	2.22242
378.986	0.90591
379.197	1.18268
379.409	1.0601
379.62	1.92784
379.832	1.60944
380.043	1.12177
380.254	1.40454
380.466	0.49366
380.677	3.39297
380.888	3.02751
381.1	3.2189
381.311	2.89417
381.522	1.30441
381.733	3.53175
381.945	1.0167
382.156	1.57361
382.367	1.05338
382.578	3.38363
382.789	3.23853
383.001	1.1899
383.212	2.09851
383.423	2.27
383.634	2.09259
383.845	1.63455
384.056	1.1138
384.267	1.13754
384.478	1.19119
384.69	0.42842
384.901	1.7215
385.112	1.58361
385.323	2.29206
385.534	1.63461
385.745	1.67494
385.956	1.55781
386.167	0.55596
386.378	1.61515
386.588	0.30042
386.799	0.5664
387.01	0.0403
387.221	1.94042
387.432	1.15245
387.643	2.66047
387.854	1.24597
388.065	1.0502
388.275	1.15269
388.486	1.05873
388.697	1.14115
388.908	1.13238
389.119	2.2145
389.329	2.39946
389.54	1.22208
389.751	1.65626
389.962	2.13173
390.172	1.42001
390.383	0.88947
390.594	0.91524
390.804	0.77624
391.015	0.77047
391.226	1.28227
391.436	1.4832
391.647	1.46976
391.858	1.59509
392.068	0.17469
392.279	0.37815
392.489	1.1925
392.7	2.1665
392.91	0.4682
393.121	0.77185
393.331	1.64359
393.542	2.02194
393.752	1.49572
393.963	1.19087
394.173	1.14907
394.384	1.57349
394.594	1.12418
394.804	0.33354
395.015	1.20414
395.225	1.39888
395.436	0.63268
395.646	1.67498
395.856	0.46638
396.067	0.43542
396.277	2.11709
396.487	1.35904
396.697	1.05269
396.908	1.78502
397.118	1.88588
397.328	1.29869
397.538	1.91185
397.749	0.73262
397.959	1.74227
398.169	1.779
398.379	0.41651
398.589	1.70588
398.8	1.31094
399.01	0.89543
399.22	1.30054
399.43	2.88487
399.64	0.85804
399.85	1.84501
400.06	1.00444
400.27	0.82671
400.48	1.46482
400.69	2.47571
400.9	0.95129
401.11	0.8101
401.32	1.89991
401.53	0.96421
401.74	2.45929
401.95	1.96174
402.16	0.37035
402.37	1.41047
402.58	0.71968
402.79	1.73166
403	1.83347
403.209	0.94579
403.419	1.86049
403.629	0.83657
403.839	1.63678
404.049	1.8652
404.258	0.59937
404.468	0.69952
404.678	1.58157
404.888	1.66206
405.097	0.49255
405.307	1.22644
405.517	1.54889
405.727	1.3595
405.936	1.03309
406.146	1.35574
406.356	2.05493
406.565	1.24258
406.775	0.73043
406.984	0.70924
407.194	2.38979
407.404	1.33854
407.613	1.4849
407.823	1.8798
408.032	1.97567
408.242	1.93019
408.451	0.95742
408.661	1.24125
408.87	2.43994
409.08	0.84306
409.289	1.6461
409.499	1.27726
409.708	1.64714
409.918	0.08023
410.127	1.29408
410.336	2.35805
410.546	1.72464
410.755	0.93877
410.964	0.94649
411.174	0.68995
411.383	1.60332
411.592	1.64053
411.802	0.55141
412.011	2.14639
412.22	1.27346
412.429	2.42792
412.639	2.32896
412.848	2.2477
413.057	2.48291
413.266	2.15115
413.475	1.33101
413.685	2.02904
413.894	1.90956
414.103	2.18246
414.312	1.921
414.521	1.2721
414.73	1.61706
414.939	2.83391
415.148	1.77055
415.357	1.66562
415.566	1.16838
415.776	1.16971
415.985	0.98499
416.194	1.84193
416.403	2.44621
416.611	0.50804
416.82	0.95618
417.029	1.47803
417.238	0.87397
417.447	0.75089
417.656	0.96897
417.865	0.80699
418.074	1.03025
418.283	1.24268
418.492	1.92648
418.7	1.7781
418.909	2.61565
419.118	1.52165
419.327	1.90571
419.536	1.58683
419.744	1.2016
419.953	2.35324
420.162	2.36486
420.371	1.15246
420.579	1.21841
420.788	2.23084
420.997	2.3763
421.205	2.18183
421.414	1.94121
421.623	2.07045
421.831	1.59974
422.04	2.30304
422.249	1.50584
422.457	2.14498
422.666	1.51612
422.874	2.64026
423.083	2.57402
423.291	2.42287
423.5	2.02357
423.708	2.3165
423.917	2.73828
424.125	2.13503
424.334	1.80543
424.542	3.77384
424.751	2.99493
424.959	2.74189
425.167	3.21745
425.376	3.03522
425.584	2.29606
425.793	2.55459
426.001	1.69355
426.209	2.60183
426.418	1.55631
426.626	1.51712
426.834	1.40906
427.042	1.60429
427.251	1.31546
427.459	2.20259
427.667	1.81463
427.875	1.02204
428.084	1.45236
428.292	2.54704
428.5	2.09348
428.708	1.15764
428.916	1.20172
429.124	1.88865
429.333	1.54992
429.541	1.55554
429.749	1.84523
429.957	1.76867
430.165	3.24668
430.373	0.97705
430.581	1.77512
430.789	2.58371
430.997	1.61882
431.205	1.2964
431.413	1.93675
431.621	1.58236
431.829	2.21717
432.037	1.52872
432.245	2.0346
432.453	1.96734
432.661	1.57724
432.869	2.94109
433.076	1.30015
433.284	1.88565
433.492	2.37412
433.7	2.68813
433.908	1.6779
434.116	1.99515
434.323	2.04011
434.531	2.07004
434.739	2.15185
434.947	2.3993
435.154	2.43052
435.362	1.99038
435.57	1.67109
435.778	1.5503
435.985	2.17756
436.193	1.6325
436.401	2.53102
436.608	1.9788
436.816	1.72655
437.023	2.91711
437.231	3.06192
437.439	2.13352
437.646	2.32745
437.854	2.26022
438.061	2.42639
438.269	1.90162
438.476	2.47261
438.684	2.18682
438.891	1.86616
439.099	1.74549
439.306	1.34229
439.514	1.57504
439.721	2.58827
439.929	1.84332
440.136	2.83346
440.343	2.6851
440.551	2.29162
440.758	4.18457
440.965	2.92427
441.173	2.60947
441.38	2.15263
441.587	2.68376
441.795	2.22695
442.002	2.40004
442.209	2.37964
442.416	2.60927
442.624	2.52968
442.831	2.35215
443.038	1.8599
443.245	1.58493
443.452	1.8498
443.66	2.50358
443.867	1.74054
444.074	1.69639
444.281	1.7904
444.488	2.01529
444.695	2.28874
444.902	2.04013
445.109	2.87377
445.316	2.34564
445.523	2.40289
445.73	2.11327
445.937	2.7327
446.144	3.09746
446.351	3.43118
446.558	2.3828
446.765	3.70527
446.972	3.65176
447.179	2.95561
447.386	3.90344
447.593	2.68503
447.8	3.52504
448.007	2.62805
448.214	2.58256
448.42	2.06847
448.627	3.10362
448.834	2.30946
449.041	2.16321
449.248	2.12514
449.454	2.73241
449.661	3.41209
449.868	2.08229
450.075	1.85167
450.281	1.28434
450.488	1.68911
450.695	1.75972
450.901	1.67468
451.108	1.95137
451.315	2.79509
451.521	2.02852
451.728	2.77728
451.935	1.80911
452.141	2.0449
452.348	2.19695
452.554	2.11914
452.761	1.89723
452.967	3.13206
453.174	2.38523
453.38	2.28958
453.587	1.56925
453.793	2.25617
454	2.89445
454.206	3.52828
454.413	2.96406
454.619	2.52212
454.825	2.0403
455.032	2.47222
455.238	2.85992
455.445	1.38811
455.651	2.44492
455.857	1.12106
456.064	2.06554
456.27	2.00844
456.476	2.07133
456.682	1.43689
456.889	2.39035
457.095	2.53144
457.301	3.56511
457.507	2.24629
457.714	2.20656
457.92	2.22761
458.126	1.73307
458.332	1.98572
458.538	1.95117
458.744	2.01171
458.951	2.14215
459.157	3.82507
459.363	2.76404
459.569	2.77334
459.775	3.42601
459.981	2.70859
460.187	3.13767
460.393	3.4881
460.599	3.99637
460.805	3.04186
461.011	2.88506
461.217	3.40427
461.423	3.18822
461.629	2.32817
461.835	2.83216
462.041	2.25008
462.247	3.39224
462.453	2.19984
462.658	2.3161
462.864	2.8638
463.07	2.58501
463.276	2.47815
463.482	2.54365
463.688	3.39866
463.893	2.03446
464.099	2.2469
464.305	3.36338
464.511	1.9976
464.716	2.457
464.922	2.89456
465.128	1.90985
465.333	3.2849
465.539	2.75713
465.745	2.43138
465.95	2.60308
466.156	4.22312
466.362	3.21232
466.567	2.4668
466.773	2.17133
466.978	3.58383
467.184	1.91817
467.389	1.39989
467.595	2.86558
467.8	2.07237
468.006	3.27737
468.211	3.21437
468.417	1.95493
468.622	2.70957
468.828	3.1194
469.033	2.73861
469.239	4.35725
469.444	2.2069
469.649	3.15223
469.855	2.37473
470.06	2.6667
470.266	1.87257
470.471	3.03713
470.676	2.81724
470.881	1.44082
471.087	3.40951
471.292	3.979
471.497	1.7569
471.703	2.37821
471.908	2.21263
472.113	2.63955
472.318	3.17575
472.523	2.0363
472.729	2.75717
472.934	3.01378
473.139	2.52181
473.344	3.04371
473.549	3.39237
473.754	2.15153
473.959	4.1758
474.164	2.15319
474.369	2.29925
474.575	3.0638
474.78	2.6698
474.985	2.293
475.19	1.48133
475.395	2.14915
475.6	2.5879
475.804	3.56778
476.009	2.53464
476.214	2.6106
476.419	2.23378
476.624	1.65725
476.829	2.04806
477.034	2.90815
477.239	2.29306
477.444	2.6783
477.648	2.91675
477.853	2.95456
478.058	2.39324
478.263	2.18396
478.468	1.92946
478.672	2.0434
478.877	3.46846
479.082	3.64211
479.287	2.7129
479.491	2.75247
479.696	1.91221
479.901	3.18797
480.105	2.92752
480.31	2.22105
480.515	2.45597
480.719	3.7939
480.924	2.16044
481.128	1.91023
481.333	2.75871
481.538	2.90406
481.742	2.6796
481.947	3.36824
482.151	3.55055
482.356	3.52765
482.56	4.46528
482.765	4.82615
482.969	6.07845
483.174	6.95592
483.378	8.30189
483.582	8.27214
483.787	9.28439
483.991	9.1182
484.196	9.57389
484.4	9.31586
484.604	10.02529
484.809	8.52787
485.013	8.56895
485.217	7.65148
485.422	6.56791
485.626	6.0359
485.83	5.75178
486.034	5.21207
486.239	5.39638
486.443	5.43393
486.647	5.27738
486.851	6.18832
487.055	6.8361
487.26	6.06417
487.464	6.76566
487.668	6.09641
487.872	6.15644
488.076	6.88815
488.28	6.27163
488.484	5.8467
488.688	6.03582
488.892	5.92973
489.096	5.50762
489.3	4.80559
489.504	4.73278
489.708	4.72143
489.912	4.56518
490.116	4.43817
490.32	3.6602
490.524	4.34316
490.728	4.59007
490.932	4.67914
491.136	4.67419
491.34	5.78086
491.544	6.02352
491.748	5.5614
491.951	5.69463
492.155	5.4467
492.359	5.49638
492.563	4.57577
492.767	4.45923
492.97	4.04752
493.174	3.57372
493.378	3.39665
493.582	2.65754
493.785	2.91554
493.989	2.84334
494.193	2.82481
494.396	2.42086
494.6	3.08342
494.804	2.43877
495.007	2.37421
495.211	2.45233
495.414	2.56541
495.618	2.8288
495.822	3.45466
496.025	2.64021
496.229	3.14072
496.432	2.44494
496.636	2.82995
496.839	2.75199
497.043	3.78515
497.246	2.91932
497.45	2.58662
497.653	2.89481
497.856	2.89594
498.06	2.29494
498.263	2.65922
498.467	2.43534
498.67	3.17627
498.873	2.85768
499.077	2.49084
499.28	2.60117
499.483	2.88839
499.686	3.11613
499.89	2.84557
500.093	3.33439
500.296	2.18902
500.499	3.70886
500.703	2.68251
500.906	2.95424
501.109	3.91013
501.312	2.83484
501.515	2.6633
501.719	3.0242
501.922	3.66489
502.125	2.84591
502.328	2.72567
502.531	2.11323
502.734	2.91757
502.937	1.66639
503.14	2.79347
503.343	2.15678
503.546	2.45931
503.749	2.36506
503.952	2.94526
504.155	2.17299
504.358	3.09499
504.561	2.84296
504.764	1.96857
504.967	2.79418
505.17	2.77589
505.373	3.78192
505.576	2.69624
505.778	3.15155
505.981	2.28767
506.184	3.57836
506.387	1.85627
506.59	3.95667
506.793	3.44872
506.995	2.98875
507.198	1.59467
507.401	2.9014
507.604	2.86773
507.806	2.16659
508.009	2.19498
508.212	3.07609
508.414	2.14699
508.617	2.34387
508.82	2.6575
509.022	3.57429
509.225	2.98033
509.427	1.84219
509.63	3.44204
509.833	2.69336
510.035	2.52692
510.238	1.7085
510.44	3.52437
510.643	1.66052
510.845	4.02198
511.048	2.99831
511.25	2.41291
511.453	2.5277
511.655	2.91449
511.858	2.5803
512.06	3.18481
512.262	2.72592
512.465	3.221
512.667	2.57349
512.869	2.06745
513.072	3.02413
513.274	3.20855
513.476	3.16524
513.679	3.22283
513.881	2.1702
514.083	3.76793
514.286	2.39513
514.488	2.45349
514.69	2.18895
514.892	2.04989
515.094	3.03947
515.297	2.41914
515.499	2.83315
515.701	2.15529
515.903	3.65384
516.105	3.82823
516.307	3.10469
516.509	1.61388
516.711	2.01133
516.913	2.75825
517.116	2.75416
517.318	2.47986
517.52	3.18867
517.722	2.9692
517.924	1.98125
518.126	3.05479
518.328	2.47516
518.529	3.27663
518.731	4.08102
518.933	2.51727
519.135	2.88155
519.337	3.67716
519.539	3.06995
519.741	1.77962
519.943	2.65371
520.145	2.58909
520.346	3.14715
520.548	2.63257
520.75	2.88479
520.952	2.39635
521.153	2.80804
521.355	3.16028
521.557	2.1992
521.759	2.91649
521.96	2.68841
522.162	1.98737
522.364	3.28243
522.565	2.28843
522.767	3.26523
522.969	3.43259
523.17	2.93476
523.372	2.87623
523.573	2.39034
523.775	2.67727
523.977	1.91882
524.178	3.89281
524.38	2.24855
524.581	3.0841
524.783	2.41915
524.984	3.02743
525.186	2.69598
525.387	3.27444
525.589	2.98304
525.79	2.83481
525.991	2.48593
526.193	3.35513
526.394	2.4145
526.596	3.45294
526.797	3.49961
526.998	3.13098
527.2	2.81098
527.401	4.24637
527.602	4.35862
527.803	5.61932
528.005	5.66662
528.206	6.31109
528.407	6.6889
528.608	6.36879
528.81	6.56303
529.011	5.94034
529.212	6.96622
529.413	6.24129
529.614	5.79673
529.815	5.95807
530.017	5.48879
530.218	4.64367
530.419	3.94184
530.62	3.92226
530.821	3.72369
531.022	2.65702
531.223	3.58871
531.424	3.70983
531.625	3.60938
531.826	3.34481
532.027	3.39347
532.228	4.42985
532.429	3.93727
532.63	3.96796
532.831	4.2948
533.032	4.14795
533.233	4.83062
533.433	4.62048
533.634	4.8466
533.835	4.24177
534.036	3.79597
534.237	3.89178
534.438	3.5644
534.638	2.84513
534.839	3.02145
535.04	3.25613
535.241	2.65152
535.441	3.86283
535.642	3.22787
535.843	2.20925
536.043	2.53071
536.244	2.62771
536.445	2.85626
536.645	3.70897
536.846	3.36703
537.047	3.90618
537.247	2.46896
537.448	2.7744
537.648	2.91764
537.849	2.68638
538.049	2.65367
538.25	3.2231
538.451	3.0195
538.651	2.32151
538.851	2.97773
539.052	3.51335
539.252	3.29348
539.453	2.68046
539.653	2.79114
539.854	2.6401
540.054	2.809
540.254	3.85238
540.455	4.20228
540.655	3.41469
540.855	4.33411
541.056	4.88431
541.256	4.59379
541.456	5.40567
541.657	4.40129
541.857	5.70174
542.057	4.11406
542.257	3.94773
542.458	4.8398
542.658	4.79609
542.858	3.37857
543.058	4.33573
543.258	3.71762
543.458	2.63609
543.659	2.24813
543.859	3.37392
544.059	3.2327
544.259	2.79505
544.459	3.37872
544.659	2.38331
544.859	3.05409
545.059	2.45549
545.259	3.13021
545.459	2.87461
545.659	3.1965
545.859	2.76818
546.059	2.8088
546.259	2.1866
546.459	1.86431
546.659	1.99209
546.859	3.17296
547.059	3.02548
547.258	2.90991
547.458	3.09151
547.658	2.10628
547.858	2.15296
548.058	3.00317
548.258	2.69255
548.457	2.22222
548.657	4.47135
548.857	2.73353
549.057	3.55558
549.256	3.22805
549.456	2.70054
549.656	1.51637
549.855	4.28622
550.055	2.60078
550.255	4.20215
550.454	3.4236
550.654	3.61823
550.853	4.04291
551.053	3.63484
551.253	3.24154
551.452	3.23846
551.652	2.09725
551.851	1.79056
552.051	2.61838
552.25	2.53242
552.45	2.36604
552.649	2.59148
552.849	2.1642
553.048	2.82292
553.248	3.08654
553.447	2.24007
553.646	3.3827
553.846	4.48005
554.045	3.86542
554.244	2.0092
554.444	4.30852
554.643	2.61741
554.842	4.19812
555.042	4.67319
555.241	2.70194
555.44	2.18672
555.64	3.32201
555.839	4.55879
556.038	3.47906
556.237	2.64639
556.436	3.10097
556.636	3.61917
556.835	2.54672
557.034	4.40819
557.233	3.14854
557.432	2.18889
557.631	3.95573
557.83	2.92698
558.029	2.73405
558.228	2.83407
558.427	2.38803
558.626	3.42534
558.825	2.4813
559.024	3.16482
559.223	4.67194
559.422	3.11811
559.621	3.5934
559.82	1.13357
560.019	3.16277
560.218	2.92648
560.417	0.62424
560.616	2.77731
560.815	5.7599
561.014	1.73302
561.212	4.2382
561.411	2.92649
561.61	1.7131
561.809	2.9965
562.008	4.19852
562.206	2.93715
562.405	3.52773
562.604	2.83424
562.803	3.32413
563.001	2.91438
563.2	1.90215
563.399	3.66854
563.597	2.20894
563.796	3.05374
563.995	1.90578
564.193	3.69871
564.392	2.78569
564.59	4.95344
564.789	1.43415
564.988	2.458
565.186	3.03699
565.385	2.60942
565.583	2.48964
565.782	2.7187
565.98	2.69104
566.179	2.70622
566.377	1.82708
566.575	2.09295
566.774	3.81445
566.972	3.56256
567.171	4.37905
567.369	3.8992
567.567	3.01266
567.766	3.25622
567.964	1.37037
568.162	3.3142
568.361	3.91875
568.559	2.72136
568.757	3.48419
568.956	3.21686
569.154	3.03628
569.352	3.70989
569.55	2.99577
569.748	2.89184
569.947	2.34631
570.145	2.2421
570.343	2.03904
570.541	3.93657
570.739	1.7945
570.937	2.75929
571.135	3.06916
571.333	4.26147
571.532	4.21503
571.73	3.01048
571.928	3.484
572.126	3.22369
572.324	2.27734
572.522	3.79646
572.72	5.09684
572.918	3.07288
573.116	3.14352
573.313	2.91109
573.511	2.75452
573.709	2.35398
573.907	3.52408
574.105	2.68573
574.303	1.43382
574.501	1.60496
574.699	2.95516
574.896	3.07561
575.094	3.23143
575.292	1.84649
575.49	3.55627
575.688	2.65635
575.885	4.10172
576.083	4.65201
576.281	3.30429
576.478	2.29034
576.676	3.36812
576.874	1.7963
577.071	2.79196
577.269	5.19556
577.467	3.02582
577.664	3.18648
577.862	3.83455
578.059	2.69406
578.257	3.88378
578.455	3.05238
578.652	3.16227
578.85	1.4975
579.047	3.11379
579.245	3.09164
579.442	3.22552
579.64	3.4593
579.837	1.49029
580.034	5.92134
580.232	2.86954
580.429	1.83348
580.627	3.56429
580.824	4.78583
581.021	3.8765
581.219	2.54902
581.416	2.28106
581.613	4.73383
581.811	4.41037
582.008	2.70743
582.205	4.01367
582.402	3.93088
582.6	5.00242
582.797	3.67845
582.994	3.6886
583.191	4.01628
583.388	3.52216
583.586	4.15902
583.783	4.46896
583.98	2.8078
584.177	3.70461
584.374	0.0737
584.571	3.38376
584.768	3.3633
584.965	2.79686
585.162	4.07756
585.359	5.24251
585.556	3.47097
585.753	3.73477
585.95	2.25424
586.147	2.7864
586.344	4.21507
586.541	3.16797
586.738	2.22855
586.935	3.42253
587.132	2.64333
587.329	4.75364
587.526	3.21512
587.722	8.77721
587.919	2.05233
588.116	3.79018
588.313	4.95813
588.51	5.76069
588.706	2.77889
588.903	3.85333
589.1	4.22031
589.297	6.22611
589.493	3.43134
589.69	3.93698
589.887	2.80489
590.083	2.23841
590.28	2.83724
590.477	4.44467
590.673	4.05329
590.87	5.01262
591.067	3.13839
591.263	4.41552
591.46	4.16078
591.656	3.26619
591.853	5.37515
592.049	2.27313
592.246	2.62347
592.442	4.72443
592.639	4.66591
592.835	2.38002
593.032	4.06529
593.228	1.75384
593.425	1.86108
593.621	2.0232
593.817	3.6662
594.014	2.6466
594.21	3.51554
594.406	4.7067
594.603	3.86576
594.799	2.81898
594.995	0.64191
595.192	4.21288
595.388	2.84133
595.584	2.85203
595.78	1.77953
595.977	5.85795
596.173	5.01331
596.369	2.87204
596.565	2.26351
596.761	1.63889
596.957	4.48926
597.154	2.2874
597.35	2.75517
597.546	2.44981
597.742	4.1011
597.938	3.2981
598.134	2.45976
598.33	3.4585
598.526	5.24297
598.722	4.12711
598.918	5.54337
599.114	4.25697
599.31	2.66667
599.506	3.8274
599.702	3.24257
599.898	4.02879
600.094	4.66394
600.29	4.46914
600.485	4.27828
600.681	3.29577
600.877	5.53325
601.073	3.74234
601.269	6.56131
601.465	5.2209
601.66	2.92329
601.856	1.46979
602.052	5.77246
602.248	2.85264
602.443	1.44833
602.639	2.10104
602.835	2.4453
603.03	2.33832
603.226	4.10787
603.422	2.08596
603.617	2.79238
603.813	2.68461
604.009	2.642
604.204	4.4809
604.4	1.64054
604.595	4.10334
604.791	2.10744
604.986	3.39149
605.182	2.17239
605.377	2.66857
605.573	2.66597
605.768	3.47625
605.964	3.92162
606.159	4.21832
606.355	4.61909
606.55	3.08055
606.746	4.83872
606.941	3.31277
607.136	6.20535
607.332	7.34246
607.527	1.90051
607.722	3.92251
607.918	3.07662
608.113	2.59008
608.308	4.34828
608.503	4.17452
608.699	3.73392
608.894	3.98302
609.089	2.46479
609.284	3.41585
609.479	2.84802
609.675	3.91688
609.87	3.05874
610.065	3.99787
610.26	4.58558
610.455	4.21023
610.65	3.33871
610.845	3.68852
611.04	4.50326
611.235	3.14862
611.43	3.0346
611.625	2.05934
611.82	5.22428
612.015	2.65524
612.21	5.75275
612.405	1.92646
612.6	6.50107
612.795	5.727
612.99	5.00908
613.185	2.47652
613.38	2.83498
613.575	4.30524
613.77	7.81978
613.965	2.01796
614.159	2.71036
614.354	6.07737
614.549	5.79038
614.744	4.61226
614.938	2.525
615.133	2.59311
615.328	6.0512
615.523	5.85282
615.717	8.07793
615.912	3.51345
616.107	4.23809
616.301	3.68915
616.496	3.17322
616.691	6.74831
616.885	5.18392
617.08	7.53157
617.274	5.78562
617.469	7.49228
617.664	5.07599
617.858	3.52858
618.053	4.77922
618.247	3.54356
618.442	0.83016
618.636	6.06571
618.831	3.61079
619.025	3.43718
619.219	8.1731
619.414	-0.33856
619.608	3.97972
619.803	2.91735
619.997	7.30499
620.191	6.02129
620.386	4.96474
620.58	4.58309
620.774	2.00986
620.969	2.04895
621.163	4.34965
621.357	2.32249
621.551	3.84696
621.746	4.63207
621.94	4.2803
622.134	9.92516
622.328	7.73269
622.522	2.48113
622.716	6.02561
622.911	5.6847
623.105	5.52865
623.299	4.55127
623.493	9.49856
623.687	2.84934
623.881	3.92229
624.075	5.18924
624.269	5.9955
624.463	2.06682
624.657	1.76846
624.851	4.98208
625.045	5.40419
625.239	5.68463
625.433	3.3562
625.627	6.91278
625.821	3.32564
626.015	2.95236
626.209	4.36785
626.403	1.57039
626.596	4.64262
626.79	4.90355
626.984	2.09963
627.178	4.63445
627.372	4.65748
627.565	5.1823
627.759	1.96671
627.953	2.45852
628.147	4.7229
628.34	5.11472
628.534	6.88701
628.728	3.99772
628.921	5.92824
629.115	5.48175
629.309	5.97462
629.502	5.97094
629.696	5.08713
629.89	4.27588
630.083	4.71953
630.277	5.56339
630.47	7.67826
630.664	4.28959
630.857	2.84334
631.051	6.01416
631.244	6.55613
631.438	5.94225
631.631	3.32873
631.825	6.72629
632.018	5.8169
632.212	7.19432
632.405	6.76705
632.598	3.8357
632.792	4.81137
632.985	1.34451
633.178	3.70735
633.372	4.43856
633.565	4.24616
633.758	6.91959
633.952	3.00392
634.145	3.34295
634.338	4.56226
634.531	3.87881
634.724	3.57849
634.918	4.72062
635.111	4.0682
635.304	4.21504
635.497	8.74112
635.69	5.40638
635.883	6.77505
636.077	2.52001
636.27	5.4971
636.463	5.43061
636.656	5.68372
636.849	3.77133
637.042	5.93757
637.235	8.61388
637.428	6.02815
637.621	6.74263
637.814	7.60691
638.007	7.91759
638.2	8.43097
638.393	8.72412
638.586	3.78139
638.778	4.52511
638.971	5.65322
639.164	8.89629
639.357	6.62516
639.55	7.59257
639.743	6.44572
639.935	6.98629
640.128	9.65938
640.321	7.02475
640.514	5.67586
640.707	11.05626
640.899	7.52141
641.092	2.73767
641.285	21.98957
641.477	2.11182
641.67	9.8906
641.863	8.37612
642.055	5.68998
642.248	6.16559
642.441	5.01188
642.633	7.07345
642.826	8.97122
643.018	8.75998
643.211	9.87931
643.403	9.75453
643.596	10.5239
643.788	10.75646
643.981	5.56902
644.173	7.9726
644.366	5.44191
644.558	2.70011
644.751	7.79972
644.943	3.43796
645.135	10.04032
645.328	10.46112
645.52	7.75172
645.712	8.00447
645.905	14.0974
646.097	4.03493
646.289	7.575
646.482	10.91439
646.674	5.09663
646.866	8.51767
647.058	6.57732
647.251	4.78582
647.443	5.31215
647.635	6.30887
647.827	4.63524
648.019	4.65549
648.211	6.53926
648.404	7.09915
648.596	10.57946
648.788	7.62182
648.98	6.56222
649.172	7.93764
649.364	7.17325
649.556	2.84185
649.748	11.84759
649.94	5.12635
650.132	7.89447
650.324	4.5092
650.516	5.19233
650.708	9.06207
650.9	3.20548
651.092	5.68356
651.284	3.02524
651.476	3.99529
651.667	7.47337
651.859	9.55242
652.051	6.0786
652.243	6.91624
652.435	5.35672
652.627	7.62632
652.818	6.87174
653.01	2.9679
653.202	5.01363
653.394	6.01544
653.585	7.72028
653.777	17.75526
653.969	9.9212
654.16	9.81166
654.352	5.09876
654.544	6.15327
654.735	9.81291
654.927	6.55491
655.118	10.56504
655.31	9.17364
655.502	9.06881
655.693	5.15525
655.885	8.52235
656.076	10.62942
656.268	7.12949
656.459	10.6197
656.651	9.6952
656.842	5.37437
657.034	5.24009
657.225	8.47656
657.416	10.51252
657.608	9.74979
657.799	6.71854
657.99	8.7104
658.182	4.37996
658.373	5.1127
658.564	8.66875
658.756	6.20326
658.947	5.52571
659.138	4.28185
659.33	5.09344
659.521	4.65964
659.712	5.39079
659.903	5.4481
660.094	4.90924
660.286	3.05989
660.477	10.66704
660.668	7.56279
660.859	6.56136
661.05	3.25965
661.241	8.09953
661.432	8.63234
661.623	6.71007
661.814	5.65141
662.006	3.21686
662.197	7.84264
662.388	9.81327
662.579	7.08462
662.77	15.10848
662.96	15.19859
663.151	9.8347
663.342	3.45631
663.533	8.12977
663.724	6.84578
663.915	12.47547
664.106	7.23851
664.297	12.25691
664.488	9.51483
664.678	6.95
664.869	8.82397
665.06	10.11153
665.251	8.68424
665.442	8.74052
665.632	5.59348
665.823	13.1758
666.014	1.02243
666.204	9.71999
666.395	11.2282
666.586	16.76109
666.776	10.35393
666.967	12.67678
667.158	8.42176
667.348	12.4273
667.539	4.47892
667.729	10.44469
667.92	5.5375
668.111	10.84141
668.301	10.68317
668.492	7.00942
668.682	7.8837
668.873	6.97478
669.063	4.64182
669.253	8.07806
669.444	11.21404
669.634	6.54959
669.825	13.05732
670.015	10.88478
670.206	5.508
670.396	14.27381
670.586	7.71697
670.777	9.41763
670.967	2.17417
671.157	6.57711
671.347	6.44764
671.538	13.6556
671.728	10.10665
671.918	13.44498
672.108	10.50365
672.299	8.31888
672.489	8.4142
672.679	7.90117
672.869	10.52206
673.059	13.48269
673.249	10.90238
673.44	5.99213
673.63	7.49254
673.82	11.72878
674.01	6.34494
674.2	10.68204
674.39	16.99888
674.58	9.9753
674.77	8.94516
674.96	9.35031
675.15	21.09952
675.34	12.27645
675.53	9.35567
675.72	6.86107
675.91	5.01701
676.099	14.26229
676.289	16.62898
676.479	11.83787
676.669	7.60105
676.859	11.04883
677.049	5.8832
677.238	8.77132
677.428	13.87717
677.618	10.97455
677.808	13.03651
677.997	9.92698
678.187	5.13445
678.377	8.53508
678.567	7.11965
678.756	7.62495
678.946	7.45116
679.136	4.3791
679.325	5.77365
679.515	5.78539
679.704	4.39495
679.894	10.04427
680.084	8.91718
680.273	11.37675
680.463	5.13061
680.652	5.06164
680.842	7.74306
681.031	10.46566
681.221	5.86637
681.41	9.20076
681.6	7.25382
681.789	10.84167
681.978	12.30908
682.168	9.09028
682.357	9.4037
682.547	10.98377
682.736	9.46033
682.925	13.61888
683.115	12.69797
683.304	11.30445
683.493	10.75177
683.682	11.47713
683.872	10.9445
684.061	13.81002
684.25	11.41795
684.439	17.43469
684.629	11.09704
684.818	21.95803
685.007	9.25648
685.196	8.53787
685.385	15.61514
685.574	11.16776
685.763	10.35624
685.952	10.78862
686.142	6.38774
686.331	14.35062
686.52	3.88878
686.709	16.16615
686.898	15.98577
687.087	11.98583
687.276	15.23778
687.465	14.53106
687.654	8.77371
687.842	15.97374
688.031	5.05263
688.22	15.41714
688.409	11.10167
688.598	10.72376
688.787	19.93089
688.976	10.50436
689.165	18.31563
689.353	9.60842
689.542	12.0263
689.731	14.66986
689.92	18.32165
690.108	14.14271
690.297	9.76739
690.486	11.97917
690.675	13.75133
690.863	18.38493
691.052	16.59815
691.241	12.58785
691.429	12.11797
691.618	17.50294
691.806	6.54309
691.995	10.27472
692.184	11.77951
692.372	9.23681
692.561	11.86171
692.749	12.15448
692.938	22.33227
693.126	13.87588
693.315	12.60098
693.503	14.05764
693.692	15.01674
693.88	15.62979
694.068	21.02791
694.257	11.72348
694.445	12.95586
694.634	4.39574
694.822	16.33282
695.01	17.14723
695.199	19.77289
695.387	18.3542
695.575	17.28658
695.763	12.61693
695.952	10.38717
696.14	6.01174
696.328	9.13465
696.516	13.11277
696.705	11.78057
696.893	13.47569
697.081	4.98652
697.269	14.8983
697.457	8.02946
697.645	6.34576
697.833	14.2372
698.021	8.10635
698.21	9.66551
698.398	9.99219
698.586	6.44666
698.774	6.10242
698.962	9.5357
699.15	6.33762
699.338	5.13876
699.526	11.56337
699.714	8.027
699.901	7.45662
700.089	13.30077
700.277	7.58707
700.465	9.51207
700.653	14.90184
700.841	11.82133
701.029	8.75027
701.217	16.23492
701.404	11.40324
701.592	17.24063
701.78	21.21578
701.968	10.25239
702.155	11.07598
702.343	5.80182
702.531	18.16444
702.718	14.76218
702.906	10.57242
703.094	9.4532
703.281	18.7613
703.469	10.56583
703.657	18.69676
703.844	27.80336
704.032	21.00718
704.219	10.52465
704.407	14.888
704.595	18.68045
704.782	14.22235
704.97	10.82826
705.157	10.89029
705.345	20.30466
705.532	26.46497
705.719	15.9953
705.907	19.97052
706.094	15.12984
706.282	22.91965
706.469	11.6051
706.656	14.17591
706.844	12.90268
707.031	18.38399
707.218	14.68333
707.406	21.51673
707.593	17.55378
707.78	17.91766
707.968	13.88528
708.155	9.64361
708.342	17.80997
708.529	17.73753
708.716	14.90184
708.904	22.53875
709.091	17.4745
709.278	9.13289
709.465	23.04067
709.652	22.60213
709.839	20.55105
710.026	17.53354
710.213	6.74443
710.4	15.826
710.587	20.72411
710.774	20.51843
710.961	20.42191
711.148	14.16898
711.335	21.31625
711.522	14.5682
711.709	16.1911
711.896	26.03902
712.083	19.48718
712.27	10.71886
712.457	15.68927
712.644	8.57219
712.831	25.93594
713.017	16.17663
713.204	19.61651
713.391	12.12588
713.578	21.74479
713.765	24.34815
713.951	19.84815
714.138	33.47848
714.325	19.56255
714.512	16.19796
714.698	12.60973
714.885	24.16708
715.072	19.41165
715.258	17.86916
715.445	13.56886
715.631	22.82661
715.818	3.89345
716.005	14.30694
716.191	19.94224
716.378	14.3285
716.564	21.44398
716.751	12.96632
716.937	15.13501
717.124	24.74018
717.31	13.15953
717.497	26.63511
717.683	12.96329
717.869	30.30718
718.056	15.05079
718.242	20.83158
718.429	18.12121
718.615	10.43741
718.801	17.71563
718.988	24.32646
719.174	20.20814
719.36	16.83815
719.547	23.4073
719.733	20.19307
719.919	20.87338
720.105	23.79232
720.291	16.49257
720.478	20.78826
720.664	17.76963
720.85	15.35046
721.036	36.41314
721.222	29.63538
721.408	18.1997
721.595	31.45953
721.781	30.88714
721.967	28.36834
722.153	29.80419
722.339	23.87286
722.525	23.17879
722.711	14.45825
722.897	12.24293
723.083	15.82837
723.269	26.75061
723.455	38.41802
723.641	41.28633
723.827	22.56805
724.012	23.06428
724.198	18.86869
724.384	28.88866
724.57	20.81184
724.756	10.64496
724.942	8.5891
725.127	27.76013
725.313	30.6474
725.499	28.7339
725.685	33.4731
725.87	22.23078
726.056	15.23498
726.242	29.14899
726.428	10.49391
726.613	27.21143
726.799	18.98263
726.985	12.83724
727.17	12.47572
727.356	34.12471
727.541	14.57829
727.727	20.24204
727.913	24.29519
728.098	18.5043
728.284	25.24539
728.469	12.10722
728.655	13.97284
728.84	27.0978
729.026	24.82968
729.211	27.43332
729.397	23.68379
729.582	24.8748
729.767	19.2888
729.953	23.29182
730.138	27.50155
730.323	6.25042
730.509	13.01982
730.694	31.81255
730.879	24.20784
731.065	22.20405
731.25	37.75588
731.435	25.31486
731.621	11.75261
731.806	17.82774
731.991	24.22869
732.176	13.53215
732.361	30.22863
732.547	24.60067
732.732	9.88784
732.917	37.50535
733.102	13.84039
733.287	16.05654
733.472	21.56204
733.657	21.85081
733.842	10.46106
734.027	19.13873
734.212	18.46328
734.397	17.05132
734.582	21.01796
734.767	27.60519
734.952	30.78208
735.137	5.29665
735.322	31.13786
735.507	22.64628
735.692	24.16902
735.877	37.90758
736.062	36.5965
736.247	23.71851
736.431	21.65232
736.616	31.30864
736.801	26.52094
736.986	23.50762
737.171	18.66167
737.355	10.78539
737.54	31.26246
737.725	22.47556
737.909	44.52442
738.094	19.04665
738.279	29.79596
738.463	22.33349
738.648	30.53366
738.833	25.70788
739.017	39.37982
739.202	23.4724
739.386	22.62791
739.571	18.07499
739.756	30.46751
739.94	23.04679
740.125	31.36947
740.309	19.79859
740.494	30.27446
740.678	23.81861
740.863	29.41905
741.047	26.67038
741.231	35.64774
741.416	17.58421
741.6	36.38519
741.785	17.9516
741.969	31.90637
742.153	35.93941
742.338	6.50968
742.522	22.29244
742.706	30.71052
742.89	13.79222
743.075	27.06852
743.259	35.21614
743.443	34.50118
743.627	34.71714
743.812	45.0462
743.996	12.66629
744.18	24.37799
744.364	19.95302
744.548	49.07364
744.732	25.60923
744.916	28.58013
745.1	30.46745
745.285	24.65366
745.469	30.2214
745.653	44.29809
745.837	16.10508
746.021	45.464
746.205	34.29911
746.389	27.56722
746.573	21.72351
746.757	38.68103
746.94	20.24125
747.124	37.92043
747.308	15.49132
747.492	34.86041
747.676	20.59665
747.86	45.87434
748.044	24.00338
748.227	11.4449
748.411	64.80767
748.595	32.07621
748.779	18.59681
748.963	31.39345
749.146	29.0323
749.33	18.83913
749.514	16.96778
749.697	34.46431
749.881	21.64534
750.065	17.19237
750.248	27.74557
750.432	49.15125
750.616	27.34268
750.799	13.8803
750.983	49.77871
751.166	53.54233
751.35	12.45712
751.533	32.13251
751.717	40.75509
751.9	39.99404
752.084	22.32643
752.267	15.53568
752.451	16.97715
752.634	28.03895
752.818	33.12441
753.001	35.46594
753.184	38.50114
753.368	29.35082
753.551	1.07669
753.734	21.26188
753.918	51.0806
754.101	19.67624
754.284	32.46093
754.467	24.26724
754.651	20.73369
754.834	22.5085
755.017	41.32252
755.2	39.60178
755.384	14.79544
755.567	35.50996
755.75	36.80701
755.933	23.48757
756.116	30.46942
756.299	21.81171
756.482	18.53763
756.665	33.67645
756.848	33.21675
757.032	32.0281
757.215	13.39314
757.398	22.37776
757.581	18.99449
757.764	52.92439
757.947	27.59187
758.129	37.96202
758.312	1.09675
758.495	25.5053
758.678	26.54486
758.861	27.28978
759.044	51.23676
759.227	22.66194
759.41	17.89843
759.592	36.09764
759.775	27.59266
759.958	36.79437
760.141	12.60833
760.324	48.12019
760.506	42.51169
760.689	34.48633
760.872	51.47701
761.054	34.62658
761.237	20.2786
761.42	33.81206
761.602	35.74331
761.785	31.50884
761.968	39.61467
762.15	43.97069
762.333	26.77266
762.515	32.22458
762.698	21.53329
762.88	31.5722
763.063	31.12639
763.245	36.26502
763.428	18.97109
763.61	20.62956
763.793	15.66169
763.975	28.63307
764.158	22.56145
764.34	20.56638
764.522	17.04137
764.705	23.69301
764.887	40.30763
765.069	13.93308
765.252	35.19757
765.434	33.45809
765.616	26.40253
765.799	19.55421
765.981	34.83098
766.163	17.79881
766.345	37.29837
766.528	20.244
766.71	3.05331
766.892	28.47489
767.074	40.59318
767.256	24.81232
767.438	46.4446
767.62	33.15622
767.802	52.76207
767.985	38.03054
768.167	52.2737
768.349	24.16705
768.531	34.15861
768.713	34.93733
768.895	44.8831
769.077	34.33179
769.259	61.49422
769.441	89.88161
769.623	42.72216
769.804	54.05219
769.986	49.93094
770.168	67.94291
770.35	71.63198
770.532	60.81195
770.714	57.40332
770.896	67.92981
771.077	23.78245
771.259	66.17122
771.441	55.88525
771.623	69.80128
771.804	94.93567
771.986	19.83523
772.168	43.23541
772.35	62.96828
772.531	94.31394
772.713	55.71779
772.894	72.80507
773.076	47.75548
773.258	38.16991
773.439	74.1454
773.621	77.5121
773.802	33.55034
773.984	50.20171
774.166	52.00941
774.347	86.67085
774.529	65.43599
774.71	15.21671
774.891	46.05266
775.073	45.89663
775.254	82.20606
775.436	43.23894
775.617	88.38028
775.799	42.12284
775.98	89.95982
776.161	82.2338
776.343	81.96831
776.524	53.75779
776.705	46.5309
776.886	23.66793
777.068	65.41797
777.249	111.62402
777.43	96.83921
777.611	31.40974
777.793	52.21728
777.974	88.59346
778.155	48.92789
778.336	41.36441
778.517	92.35578
778.698	44.93654
778.879	15.93363
779.061	1.02686
779.242	62.71456
779.423	59.04023
779.604	39.58064
779.785	50.22736
779.966	63.64735
780.147	73.31418
780.328	76.63824
780.509	102.57929
780.69	69.12428
780.871	46.43435
781.051	20.76436
781.232	52.59654
781.413	59.44518
781.594	42.09473
781.775	40.68403
781.956	40.78577
782.137	22.54546
782.317	40.80698
782.498	65.34738
782.679	64.94328
782.86	54.46081
783.04	35.52893
783.221	62.39242
783.402	96.81682
783.583	52.38318
783.763	71.91096
783.944	43.51934
784.124	21.51428
784.305	91.11332
784.486	68.71547
784.666	50.10097
784.847	17.69564
785.027	114.31666
785.208	36.83961
785.388	36.47351
785.569	35.53734
785.749	45.25854
785.93	40.38137
786.11	27.90194
786.291	54.58835
786.471	61.1769
786.652	65.78485
786.832	50.65168
787.012	66.20302
787.193	27.57544
787.373	53.86049
787.553	42.39915
787.734	57.55957
787.914	41.02037
788.094	65.50071
788.275	57.59805
788.455	43.40883
788.635	26.9852
788.815	57.80861
788.995	28.99452
789.176	27.82384
789.356	35.78892
789.536	44.27398
789.716	62.45574
789.896	36.68341
790.076	42.96035
790.256	59.16118
790.436	11.43573
790.616	31.07698
790.796	55.2327
790.976	43.50941
791.156	38.04726
791.336	64.14921
791.516	57.03429
791.696	46.13507
791.876	20.09995
792.056	57.48132
792.236	76.95324
792.416	68.3268
792.596	61.91206
792.776	54.93484
792.956	68.20363
793.135	88.23454
793.315	28.75292
793.495	76.90534
793.675	66.2986
793.854	74.099
794.034	71.98082
794.214	27.54632
794.394	69.68632
794.573	73.47762
794.753	48.52606
794.933	40.31155
795.112	56.66619
795.292	68.79855
795.472	87.71138
795.651	30.91094
795.831	54.26021
796.01	44.16097
796.19	45.91323
796.369	42.67212
796.549	61.89409
796.728	44.91325
796.908	30.82553
797.087	30.11691
797.267	48.42153
797.446	29.23831
797.626	54.96794
797.805	59.81943
797.984	39.36795
798.164	60.87418
798.343	33.22359
798.522	57.42442
798.702	52.23496
798.881	28.53382
799.06	42.02296
799.239	12.66729
799.419	31.79437
799.598	82.28563
799.777	64.13611
799.956	68.38803
800.136	46.50368
800.315	33.92509
800.494	54.4786
800.673	68.06909
800.852	70.82209
801.031	72.49427
801.21	61.20687
801.389	38.80291
801.568	58.05226
801.747	87.49331
801.926	43.22581
802.105	84.91882
802.284	50.012
802.463	80.27809
802.642	55.55525
802.821	60.2804
803	80.05614
803.179	72.99697
803.358	81.63245
803.537	38.74674
803.716	63.33958
803.895	39.76608
804.073	51.88105
804.252	42.77991
804.431	56.57414
804.61	55.52805
804.789	83.29081
804.967	41.73883
805.146	39.47439
805.325	103.47229
805.503	65.67328
805.682	28.826
805.861	121.54537
806.039	86.13098
806.218	36.02725
806.397	64.08545
806.575	59.99307
806.754	56.06994
806.932	36.37974
807.111	89.28741
807.289	75.36592
807.468	64.13691
807.646	78.44795
807.825	61.27331
808.003	63.75909
808.182	77.67283
808.36	55.95608
808.539	38.22294
808.717	86.64472
808.895	37.72562
809.074	60.2471
809.252	49.75315
809.43	77.94498
809.609	85.86804
809.787	98.33814
809.965	49.42081
810.144	57.64382
810.322	39.02562
810.5	69.86977
810.678	57.72104
810.856	102.04056
811.035	83.23235
811.213	79.65653
811.391	80.27798
811.569	55.17126
811.747	139.35003
811.925	87.4584
812.103	42.74763
812.281	51.35427
812.459	108.62853
812.637	106.56525
812.816	92.00779
812.994	112.81105
813.171	88.25611
813.349	81.05951
813.527	94.26925
813.705	85.62543
813.883	112.30733
814.061	93.20622
814.239	112.86849
814.417	115.38629
814.595	79.50426
814.773	62.94842
814.95	67.6285
815.128	70.87524
815.306	56.07593
815.484	59.93426
815.662	46.79629
815.839	42.32298
816.017	51.61244
816.195	87.90614
816.372	58.65863
816.55	89.7981
816.728	98.75019
816.905	67.19722
817.083	85.4118
817.261	61.95543
817.438	140.57688
817.616	119.66051
817.793	46.99665
817.971	80.11253
818.148	74.28252
818.326	102.57266
818.503	65.93979
818.681	97.44036
818.858	50.24125
819.036	58.85703
819.213	67.31094
819.391	49.48751
819.568	39.43273
819.745	42.56485
819.923	75.59686
820.1	45.82194
820.277	42.94779
820.455	48.74197
820.632	50.42326
820.809	58.084
820.986	29.31609
821.164	22.52236
821.341	17.98158
821.518	29.99614
821.695	20.08658
821.872	18.04653
822.05	13.78554
822.227	8.53311
822.404	10.48958
822.581	13.86543
822.758	10.03296
822.935	10.19678
823.112	13.21492
823.289	8.73593
823.466	12.62997
823.643	11.23476
823.82	15.2741
823.997	12.49906
824.174	16.11647
824.351	24.0849
824.528	22.45283
824.705	18.98984
824.882	21.41745
825.059	32.08829
825.236	19.35544
825.412	19.69715
825.589	28.99641
825.766	47.58458
825.943	23.93522
826.12	31.64651
826.296	16.45777
826.473	27.51799
826.65	26.21474
826.827	36.2446
827.003	20.80029
827.18	23.86582
827.357	29.25564
827.533	22.30509
827.71	9.60029
827.887	19.90025
828.063	25.29925
828.24	19.20299
828.416	30.18401
828.593	23.30905
828.769	36.22266
828.946	40.98916
829.122	41.35639
829.299	44.58943
829.475	14.61406
829.652	39.38295
829.828	69.4162
830.005	44.64653
830.181	55.46193
830.357	31.29842
830.534	64.92581
830.71	56.20797
830.886	69.49133
831.063	56.88081
831.239	86.09974
831.415	33.76038
831.592	101.08303
831.768	49.45826
831.944	39.4763
832.12	96.11665
832.296	92.39015
832.473	71.13999
832.649	44.13099
832.825	67.67068
833.001	35.65212
833.177	56.02452
833.353	51.24039
833.529	24.48398
833.705	40.29032
833.881	28.09191
834.058	24.8097
834.234	26.97687
834.41	27.5679
834.586	19.19019
834.761	25.32092
834.937	29.74694
835.113	32.35524
835.289	24.95848
835.465	32.43366
835.641	27.57978
835.817	31.79194
835.993	64.00641
836.169	28.16572
836.344	48.49583
836.52	61.71057
836.696	68.66818
836.872	33.05436
837.048	141.31978
837.223	46.01259
837.399	118.99356
837.575	93.56029
837.75	85.694
837.926	124.78373
838.102	204.01217
838.277	150.49847
838.453	206.43454
838.628	205.36143
838.804	52.94262
838.98	205.79571
839.155	90.63037
839.331	122.69342
839.506	91.5129
839.682	75.08328
839.857	99.01082
840.033	125.36225
840.208	50.31527
840.384	28.28564
840.559	52.63216
840.734	97.35896
840.91	134.9412
841.085	84.00939
841.26	83.60045
841.436	74.59367
841.611	66.60497
841.786	103.09959
841.962	155.41122
842.137	117.23689
842.312	49.64935
842.487	78.44794
842.663	73.07818
842.838	90.06136
843.013	277.04431
843.188	182.45849
843.363	117.30244
843.538	293.34417
843.714	345.38607
843.889	312.21279
844.064	299.83321
844.239	213.51182
844.414	468.12326
844.589	234.61967
844.764	390.07852
844.939	377.55173
845.114	406.64041
845.289	404.6282
845.464	477.03421
845.639	390.99149
845.814	174.85629
845.989	293.73969
846.163	234.82851
846.338	322.75218
846.513	380.29495
846.688	248.07903
846.863	302.2587
847.038	205.53234
847.212	282.21047
847.387	332.45753
847.562	258.19194
847.737	451.06577
847.911	189.95061
848.086	169.65422
848.261	425.17546
848.435	262.79623
848.61	366.69909
848.785	167.38579
848.959	414.96669
849.134	450.71526
849.308	646.33256
849.483	318.46611
849.658	505.88262
849.832	238.93032
850.007	199.33276
850.181	657.48167
850.356	287.17561
850.53	740.34906
850.705	311.30183
850.879	130.85707
851.053	284.75531
851.228	285.14321
851.402	436.95255
851.577	436.73044
851.751	574.0589
851.925	328.54209
852.099	121.53184
852.274	228.9463
852.448	286.38262
852.622	442.56733
852.797	289.90338
852.971	333.03573
853.145	382.62469
853.319	714.05844
853.493	631.5208
853.668	484.17789
853.842	765.01131
854.016	493.40099
854.19	705.13756
854.364	336.51865
854.538	348.88013
854.712	739.27742
854.886	350.75313
855.06	249.95265
855.234	93.14996
855.408	626.25125
855.582	395.05953
855.756	587.90912
855.93	513.5947
856.104	632.91098
856.278	554.09751
856.452	359.69314
856.626	389.79127
856.8	909.67267
856.973	390.85037
857.147	456.79267
857.321	465.08285
857.495	510.93829
857.669	303.55587
857.842	444.85748
858.016	546.42808
858.19	216.87397
858.364	726.5141
858.537	353.9181
858.711	466.86311
858.885	370.48757
859.058	214.36875
859.232	165.51154
859.405	123.92884
859.579	481.88832
859.753	517.24694
859.926	235.97821
860.1	179.70551
860.273	382.19202
860.447	469.70154
860.62	357.24478
860.794	601.0039
860.967	295.61335
861.141	464.02596
861.314	751.23672
861.487	432.07535
861.661	465.25173
861.834	505.64079
862.008	657.12212
862.181	412.73801
862.354	490.21104
862.528	481.68189
862.701	300.18199
862.874	175.78137
863.047	303.87933
863.221	269.01416
863.394	169.44966
863.567	405.66151
863.74	112.99811
863.913	500.92942
864.087	491.08915
864.26	436.2127
864.433	341.95315
864.606	589.79237
864.779	351.60658
864.952	141.48111
865.125	412.10235
865.298	276.33664
865.471	330.89258
865.644	755.18109
865.817	473.65225
865.99	445.69603
866.163	432.51168
866.336	214.04564
866.509	306.87418
866.682	619.16187
866.855	681.88954
867.028	189.61085
867.2	388.98318
867.373	84.6662
867.546	360.30021
867.719	695.82507
867.892	434.181
868.064	266.32108
868.237	316.23184
868.41	345.24642
868.583	181.75683
868.755	191.56715
868.928	398.17252
869.101	788.03416
869.273	514.2456
869.446	496.14269
869.619	547.1345
869.791	342.9711
869.964	475.38194
870.136	810.765
870.309	340.7051
870.481	396.00315
870.654	188.88715
870.826	303.71263
870.999	221.34481
871.171	402.27235
871.344	221.77247
871.516	287.25965
871.689	235.65404
871.861	330.03337
872.033	270.1018
872.206	251.9226
872.378	330.89417
872.55	358.44113
872.723	172.71983
872.895	306.9471
873.067	458.13234
873.24	362.77859
873.412	313.23346
873.584	342.24501
873.756	321.25312
873.928	462.5823
874.101	325.7019
874.273	387.66246
874.445	105.93149
874.617	213.15194
874.789	295.41693
874.961	288.64954
875.133	366.51224
875.305	342.18078
875.477	292.61493
875.649	127.29753
875.821	159.01084
875.993	582.14839
876.165	331.27586
876.337	353.00236
876.509	307.281
876.681	361.76068
876.853	332.49302
877.025	352.43716
877.197	231.15378
877.369	140.61604
877.541	324.62704
877.712	80.47949
877.884	151.42082
878.056	326.72209
878.228	178.44747
878.4	393.69266
878.571	151.26411
878.743	107.04301
878.915	277.60811
879.086	114.29955
879.258	174.94759
879.43	168.78202
879.601	130.29205
879.773	121.21021
879.945	22.97118
880.116	48.93333
880.288	25.08903
880.459	29.04294
880.631	20.60924
880.802	25.75821
880.974	21.62653
881.145	12.17259
881.317	19.84424
881.488	13.31258
881.66	14.43748
881.831	13.42852
882.002	21.18796
882.174	12.68895
882.345	18.57587
882.517	6.02352
882.688	26.04847
882.859	16.752
883.03	34.95493
883.202	29.7508
883.373	22.86755
883.544	24.88666
883.715	48.46434
883.887	38.30614
884.058	29.50335
884.229	47.2835
884.4	48.98487
884.571	64.07997
884.742	45.81393
884.914	59.80375
885.085	91.84555
885.256	133.59212
885.427	106.68704
885.598	137.54766
885.769	133.06864
885.94	128.47369
886.111	68.15938
886.282	160.06272
886.453	126.76203
886.624	107.66492
886.795	189.09085
886.966	162.60791
887.136	181.7536
887.307	123.18773
887.478	291.85555
887.649	253.34155
887.82	222.86998
887.991	188.05111
888.161	333.74395
888.332	322.02884
888.503	136.2567
888.674	371.36787
888.844	520.33577
889.015	321.21442
889.186	210.30023
889.356	472.77349
889.527	219.60215
889.698	631.33644
889.868	216.79644
890.039	385.70525
890.209	268.38713
890.38	369.29117
890.551	348.9532
890.721	402.66359
890.892	447.50632
891.062	370.37454
891.233	528.34979
891.403	416.13788
891.574	273.87621
891.744	241.38108
891.914	342.7347
892.085	343.80889
892.255	67.05119
892.425	438.5338
892.596	297.05583
892.766	358.66263
892.936	442.48069
893.107	383.02208
893.277	150.61924
893.447	166.71506
893.618	102.87419
893.788	182.39088
893.958	129.54478
894.128	83.77169
894.298	110.46837
894.468	138.82141
894.639	65.5797
894.809	25.56477
894.979	67.17791
895.149	80.91149
895.319	61.28594
895.489	99.84384
895.659	137.45007
895.829	77.05048
895.999	76.45957
896.169	66.07443
896.339	78.26113
896.509	178.65226
896.679	183.98767
896.849	195.42049
897.019	275.03558
897.189	226.17554
897.358	195.13288
897.528	334.54873
897.698	205.63895
897.868	294.81076
898.038	618.15875
898.208	559.53952
898.377	159.88506
898.547	987.95195
898.717	1416.00124
898.886	381.76012
899.056	612.30117
899.226	1443.84224
899.395	729.64063
899.565	1218.34295
899.735	782.92983
899.904	855.73026
900.074	1035.10999
900.244	227.49921
900.413	1260.57346
900.583	306.28207
900.752	1304.87826
900.922	969.27834
901.091	139.4859
901.261	1606.78897
901.43	517.25374
901.599	2182.36741
901.769	1442.12382
901.938	992.42661
902.108	1582.40662
902.277	757.86674
902.446	356.87929
902.616	355.90644
902.785	557.45659
902.954	692.86523
903.124	503.30917
903.293	282.46458
903.462	117.15425
903.631	190.96451
903.801	142.85121
903.97	51.34424
904.139	105.81329
904.308	80.94951
904.477	69.35046
904.646	31.56127
904.816	58.76742
904.985	89.93712
905.154	135.46289
