Data from WindowProjectSample_Transmission__57__00057.txt Node

Date: Sat May 03 16:55:41 EDT 2025
User: jessi
Spectrometer: SR400872
Trigger mode: 0
Integration Time (sec): 5.000010E-1
Scans to average: 6
Electric dark correction enabled: true
Nonlinearity correction enabled: true
Boxcar width: 0
XAxis mode: Wavelengths
Number of Pixels in Spectrum: 3648
>>>>>Begin Spectral Data<<<<<
184.909	174349.63649
185.132	1631.59658
185.355	-2020.42505
185.578	3373.07094
185.801	-654.77772
186.024	6125.83522
186.247	1180.57003
186.47	878.40564
186.693	-517.49307
186.916	124.83501
187.139	10105.89004
187.362	3352.76068
187.585	2663.01855
187.808	-1243.86064
188.031	-126.28816
188.254	7420.32995
188.476	611.18096
188.699	-4311.66325
188.922	-478.51579
189.145	-4446.41578
189.368	-339.12189
189.591	-958.34645
189.813	-2178.49007
190.036	4590.20234
190.259	3442.80646
190.482	2382.1706
190.705	8905.48515
190.927	-1594.07832
191.15	-1625.94061
191.373	4612.40111
191.595	-1870.18813
191.818	9157.18518
192.041	-175.458
192.263	-2216.16582
192.486	-845.70672
192.709	8960.26145
192.931	-2648.66615
193.154	-1914.98706
193.377	4413.28563
193.599	5853.71101
193.822	-1856.21085
194.044	-1708.45652
194.267	670.76315
194.489	170.03717
194.712	2060.96097
194.934	3456.63203
195.157	-9146.82951
195.379	1861.48374
195.602	5255.30868
195.824	5694.10509
196.047	-8234.98321
196.269	-10620.92055
196.492	-1103.9497
196.714	-5326.40657
196.936	4657.77939
197.159	-2620.18433
197.381	-563.58084
197.604	904.30764
197.826	-3163.25041
198.048	-1234.44023
198.271	-11678.54809
198.493	9268.61723
198.715	-2451.11166
198.938	-670.9002
199.16	-3665.84284
199.382	1772.40152
199.604	-1403.88184
199.827	-1423.71897
200.049	-4319.27571
200.271	2323.13214
200.493	-24982.85426
200.715	5071.06645
200.938	12688.71195
201.16	-234386.41907
201.382	-5961.71718
201.604	-1121.68218
201.826	-6228.88102
202.048	-6811.04637
202.27	-4781.3513
202.492	-3501.04088
202.715	-1378.17797
202.937	-3502.27401
203.159	1067.41847
203.381	-82049.70178
203.603	-1049.95452
203.825	-1508.66518
204.047	2368.32139
204.269	-850.56756
204.491	7040.52964
204.713	-8686.95122
204.935	37284.35877
205.156	1946.19072
205.378	-7462.61588
205.6	-1653.17959
205.822	6184.77244
206.044	-221.43784
206.266	-1974.77984
206.488	716.99032
206.71	-483256.15088
206.932	-14753.81684
207.153	11358.53699
207.375	-2250.81163
207.597	15897.14077
207.819	1607.18727
208.041	6207.30617
208.262	658.46113
208.484	-858.89176
208.706	-904.44122
208.927	10713.76012
209.149	-8276.3586
209.371	-2570.99099
209.593	-2536.31344
209.814	-3739.88236
210.036	2418.34393
210.258	-661.83182
210.479	2212.16369
210.701	764.78859
210.922	3992.97295
211.144	-1375.82773
211.366	5614.04805
211.587	-629.25976
211.809	-3394.1444
212.03	-2281.43913
212.252	-379.27529
212.473	3124.46218
212.695	-816.13788
212.916	-873.30256
213.138	618.12406
213.359	-1208.3408
213.581	-3342.43766
213.802	-1187.163
214.024	10673.23908
214.245	-1069.62663
214.466	-111.04554
214.688	-3689.62923
214.909	-753.83379
215.131	8288.12362
215.352	-1160.22791
215.573	-242235.2365
215.795	4511.89781
216.016	-3866.37062
216.237	-574.11362
216.459	-11387.54045
216.68	-1511.09839
216.901	-1695.09691
217.122	1921.72369
217.344	-8406.6981
217.565	-1586.15416
217.786	23468.40974
218.007	995.26014
218.228	-3731.86816
218.45	-5827.30161
218.671	-1413.22156
218.892	878.74305
219.113	1655.7954
219.334	324.16715
219.555	-6234.26133
219.776	32628.3148
219.997	-6588.30948
220.219	-9027.5325
220.44	-5014.40208
220.661	-1152.34022
220.882	12975.19559
221.103	-842.88802
221.324	2514.66605
221.545	-6403.88037
221.766	-1430.42752
221.987	-515.19953
222.208	1903.95199
222.429	6452.49257
222.65	-166.42656
222.87	-653.19889
223.091	38837.08663
223.312	780.47918
223.533	-1816.53548
223.754	3378.74604
223.975	1693.90011
224.196	-713.62499
224.417	-29419.04476
224.637	-2540.27206
224.858	325.03645
225.079	3591.38885
225.3	1620.03452
225.521	3621.11406
225.741	-2391.55567
225.962	1590.04352
226.183	961.83423
226.404	1860.13131
226.624	1776.8503
226.845	1388.39621
227.066	2499.85206
227.286	665.2826
227.507	385.98223
227.728	404.53345
227.948	529.83191
228.169	111.98152
228.389	121.91679
228.61	55.85395
228.831	86.88877
229.051	10.13076
229.272	45.79589
229.492	61.95874
229.713	21.10224
229.933	45.48943
230.154	43.02126
230.374	67.44036
230.595	56.30792
230.815	39.38093
231.036	54.48456
231.256	-9.55652
231.477	106.92349
231.697	63.44864
231.917	61.71265
232.138	83.8959
232.358	178.5377
232.579	179.55022
232.799	25.10919
233.019	169.52239
233.24	244.43302
233.46	69.63892
233.68	108.29476
233.901	99.23634
234.121	48.13812
234.341	15.37437
234.561	-4.70336
234.782	38.14807
235.002	118.01539
235.222	-3.195
235.442	92.25421
235.662	47.76729
235.883	102.71221
236.103	86.1151
236.323	62.55829
236.543	51.52566
236.763	70.57166
236.983	65.05073
237.203	74.70151
237.423	106.3187
237.643	144.10592
237.864	141.83299
238.084	36.56297
238.304	47.81731
238.524	84.02218
238.744	69.84146
238.964	108.55771
239.184	108.67372
239.404	100.57891
239.624	52.71653
239.843	94.28018
240.063	53.48571
240.283	37.15289
240.503	37.32338
240.723	33.36834
240.943	19.86022
241.163	27.42085
241.383	19.6673
241.603	10.63021
241.822	12.20555
242.042	9.29067
242.262	10.49714
242.482	12.33358
242.702	13.77714
242.921	5.26864
243.141	10.2208
243.361	8.34914
243.581	12.47872
243.8	11.31039
244.02	7.56662
244.24	14.98142
244.459	13.17427
244.679	27.28571
244.899	17.02426
245.118	19.11091
245.338	17.52109
245.558	20.01108
245.777	11.45211
245.997	13.54182
246.216	13.52609
246.436	7.66156
246.655	5.51632
246.875	4.09577
247.094	7.57302
247.314	2.48742
247.533	4.2889
247.753	5.6366
247.972	4.60725
248.192	2.00984
248.411	2.8661
248.631	5.22043
248.85	6.61865
249.07	4.52383
249.289	8.11258
249.508	6.99348
249.728	9.85726
249.947	11.49499
250.166	11.51099
250.386	7.80688
250.605	9.67969
250.824	15.69456
251.044	11.05869
251.263	36.26581
251.482	19.04259
251.701	16.81572
251.921	0.09693
252.14	5.6469
252.359	6.11988
252.578	13.8672
252.798	5.33732
253.017	12.68882
253.236	7.14075
253.455	8.2804
253.674	16.34252
253.893	8.04154
254.112	11.88341
254.331	16.05733
254.551	13.74781
254.77	7.18757
254.989	19.84876
255.208	17.38945
255.427	22.62296
255.646	21.57224
255.865	34.34678
256.084	12.00984
256.303	14.85936
256.522	20.75739
256.741	4.3461
256.96	4.72136
257.179	11.4838
257.397	15.35977
257.616	6.5704
257.835	7.86184
258.054	20.85171
258.273	13.69823
258.492	16.16561
258.711	8.95339
258.93	4.03357
259.148	5.66905
259.367	5.68248
259.586	7.42794
259.805	3.30364
260.023	6.77303
260.242	5.07687
260.461	3.82264
260.68	1.98335
260.898	5.85558
261.117	1.79942
261.336	1.49307
261.554	5.55057
261.773	5.36961
261.992	0.75541
262.21	5.29359
262.429	6.41737
262.648	10.35609
262.866	11.74977
263.085	7.48278
263.303	6.65156
263.522	11.93939
263.74	12.72221
263.959	21.07971
264.178	10.58657
264.396	9.56251
264.615	7.19806
264.833	16.68851
265.051	14.29683
265.27	14.46389
265.488	15.49346
265.707	9.85248
265.925	15.66845
266.144	6.54613
266.362	8.72326
266.58	9.29026
266.799	6.44283
267.017	8.36192
267.235	7.59318
267.454	4.81081
267.672	3.00627
267.89	6.12208
268.109	6.33407
268.327	5.65496
268.545	2.07133
268.763	5.63045
268.982	2.3279
269.2	7.40809
269.418	4.3756
269.636	2.93073
269.854	5.56569
270.073	4.79677
270.291	2.17701
270.509	2.31566
270.727	5.67335
270.945	9.99268
271.163	9.64289
271.381	2.40313
271.599	3.9365
271.817	7.02424
272.036	2.78997
272.254	4.55962
272.472	3.45362
272.69	3.50768
272.908	2.75453
273.126	5.89587
273.344	7.41064
273.562	2.73975
273.779	3.58366
273.997	4.99027
274.215	6.14362
274.433	4.59442
274.651	6.14811
274.869	7.061
275.087	3.83649
275.305	5.74724
275.523	3.3571
275.74	4.57887
275.958	7.55963
276.176	10.95631
276.394	3.51707
276.612	4.44661
276.829	4.60092
277.047	4.01662
277.265	4.60896
277.483	5.5261
277.7	6.10565
277.918	4.91187
278.136	8.53257
278.353	4.03085
278.571	2.38596
278.789	7.20013
279.006	1.27429
279.224	3.92536
279.442	7.35943
279.659	4.69402
279.877	3.77332
280.094	7.78797
280.312	1.57541
280.529	4.96299
280.747	1.27906
280.964	3.6774
281.182	8.4841
281.399	3.57682
281.617	5.28422
281.834	3.8203
282.052	3.22962
282.269	4.41338
282.487	3.72203
282.704	2.9086
282.921	3.51554
283.139	4.49673
283.356	5.97417
283.574	5.05976
283.791	2.97104
284.008	7.52038
284.226	3.85801
284.443	4.78042
284.66	5.8793
284.877	4.63597
285.095	3.18654
285.312	2.03921
285.529	1.57738
285.746	1.21545
285.964	2.92042
286.181	1.75286
286.398	2.74705
286.615	3.58429
286.832	3.3851
287.05	1.09351
287.267	2.55259
287.484	2.87117
287.701	3.75666
287.918	3.75941
288.135	3.55363
288.352	1.70907
288.569	2.24902
288.786	3.44728
289.003	2.6373
289.22	3.7674
289.437	2.63851
289.654	4.08533
289.871	4.22985
290.088	4.29069
290.305	3.20266
290.522	2.34886
290.739	2.81435
290.956	4.28058
291.173	5.15306
291.39	4.8462
291.607	3.37571
291.824	2.75174
292.04	1.64634
292.257	3.83336
292.474	4.30695
292.691	2.61869
292.908	1.58947
293.125	2.48986
293.341	1.42629
293.558	7.09382
293.775	2.91285
293.992	2.81106
294.208	1.27727
294.425	2.03419
294.642	2.63191
294.858	3.94789
295.075	0.99682
295.292	2.82792
295.508	3.50741
295.725	5.1408
295.942	2.48645
296.158	1.53797
296.375	2.68652
296.591	2.11403
296.808	2.37982
297.024	2.56779
297.241	2.83764
297.458	3.25889
297.674	0.32563
297.891	2.50949
298.107	1.77652
298.323	1.48848
298.54	3.79015
298.756	1.70755
298.973	0.8664
299.189	3.98565
299.406	1.64862
299.622	3.91437
299.838	3.93485
300.055	3.45888
300.271	0.90888
300.487	1.45478
300.704	1.55575
300.92	0.99005
301.136	5.44417
301.353	3.69918
301.569	2.70631
301.785	3.12994
302.001	3.76892
302.218	3.26094
302.434	2.93526
302.65	0.99165
302.866	2.35776
303.083	5.233
303.299	5.10434
303.515	2.63284
303.731	3.00511
303.947	0.9634
304.163	1.74565
304.379	3.0374
304.595	3.38361
304.812	1.85305
305.028	1.58664
305.244	2.35837
305.46	3.57599
305.676	3.87992
305.892	4.3943
306.108	2.66854
306.324	2.04595
306.54	5.18319
306.756	3.65014
306.972	3.45857
307.187	2.25081
307.403	4.62105
307.619	1.85111
307.835	3.88759
308.051	4.59613
308.267	1.17873
308.483	4.01098
308.699	3.56477
308.914	2.85505
309.13	2.60567
309.346	0.85271
309.562	1.61977
309.778	0.89435
309.993	3.40484
310.209	2.48137
310.425	1.03426
310.641	2.33328
310.856	1.28177
311.072	1.3122
311.288	2.3634
311.503	2.64983
311.719	0.49205
311.935	0.36721
312.15	2.88205
312.366	2.38937
312.581	3.32851
312.797	2.65666
313.013	3.49221
313.228	2.02359
313.444	2.80269
313.659	1.87252
313.875	3.0725
314.09	2.72488
314.306	4.02724
314.521	3.81327
314.737	3.1154
314.952	3.07836
315.168	2.36057
315.383	3.40865
315.599	2.34674
315.814	2.39432
316.029	3.37476
316.245	0.96723
316.46	0.91204
316.675	4.2483
316.891	4.86392
317.106	6.35924
317.321	3.5584
317.537	3.30823
317.752	3.60326
317.967	3.71478
318.183	1.6211
318.398	2.16433
318.613	4.05336
318.828	4.65439
319.043	3.76293
319.259	2.19329
319.474	3.3158
319.689	4.0935
319.904	0.61062
320.119	3.58038
320.334	2.86139
320.549	2.62457
320.765	4.27643
320.98	2.91425
321.195	3.89214
321.41	2.40251
321.625	3.69842
321.84	5.2367
322.055	5.03542
322.27	1.7827
322.485	1.25135
322.7	2.9644
322.915	4.04879
323.13	1.60152
323.345	4.74595
323.56	3.8887
323.775	3.61874
323.989	3.44715
324.204	2.78652
324.419	3.77437
324.634	1.24886
324.849	2.3691
325.064	5.73533
325.279	3.86484
325.493	3.51662
325.708	4.07513
325.923	1.6954
326.138	1.7055
326.352	4.70432
326.567	3.6831
326.782	2.32963
326.997	1.73724
327.211	3.31072
327.426	3.1946
327.641	2.38653
327.855	0.71742
328.07	3.53702
328.285	4.95197
328.499	2.46574
328.714	3.42717
328.928	3.77979
329.143	2.99122
329.358	4.09217
329.572	3.82855
329.787	4.29965
330.001	6.03538
330.216	1.13682
330.43	4.92296
330.645	4.91289
330.859	3.90208
331.074	2.04097
331.288	3.20862
331.503	4.35519
331.717	1.5609
331.931	2.64332
332.146	2.74845
332.36	4.78823
332.575	3.43085
332.789	2.9963
333.003	2.50744
333.218	3.49456
333.432	2.42409
333.646	3.54798
333.86	4.48836
334.075	5.04794
334.289	2.38075
334.503	1.89061
334.717	3.39321
334.932	3.46822
335.146	4.56397
335.36	2.66569
335.574	3.66467
335.788	3.44806
336.003	4.6152
336.217	3.61107
336.431	3.67862
336.645	2.04984
336.859	1.41494
337.073	2.71708
337.287	2.96344
337.501	1.66805
337.715	2.96172
337.929	3.54863
338.143	1.80193
338.357	2.75588
338.571	1.68398
338.785	3.04052
338.999	2.14016
339.213	2.3102
339.427	1.14887
339.641	4.18799
339.855	2.80906
340.069	2.1075
340.283	3.88987
340.497	4.88417
340.711	3.22313
340.924	2.03689
341.138	1.56272
341.352	1.15939
341.566	3.18958
341.78	0.73959
341.993	2.03709
342.207	1.60105
342.421	3.0573
342.635	2.95691
342.848	1.93772
343.062	0.32023
343.276	1.96901
343.49	5.30362
343.703	1.8699
343.917	3.63018
344.131	3.75336
344.344	1.87869
344.558	2.00774
344.771	1.74309
344.985	4.4854
345.199	4.52099
345.412	2.93229
345.626	3.01621
345.839	0.8491
346.053	1.41157
346.266	1.41923
346.48	3.64043
346.693	2.97094
346.907	3.27736
347.12	1.76423
347.334	2.97502
347.547	3.04538
347.76	2.43502
347.974	3.90315
348.187	3.07167
348.401	2.26403
348.614	1.96254
348.827	2.08458
349.041	3.29445
349.254	0.65125
349.467	2.32126
349.681	1.10245
349.894	1.76838
350.107	3.94676
350.32	4.40916
350.534	0.60975
350.747	1.9824
350.96	1.50871
351.173	1.82971
351.386	2.06055
351.6	2.09476
351.813	1.68055
352.026	2.67538
352.239	1.03394
352.452	1.9098
352.665	3.66626
352.878	2.14565
353.092	4.77103
353.305	3.03715
353.518	2.76795
353.731	1.79401
353.944	3.87111
354.157	1.6281
354.37	1.36225
354.583	1.13943
354.796	0.69859
355.009	3.80185
355.222	2.45865
355.435	2.44213
355.647	3.75076
355.86	1.12031
356.073	2.22968
356.286	1.85533
356.499	3.1793
356.712	2.4014
356.925	2.73777
357.138	3.38883
357.35	1.31871
357.563	1.98027
357.776	2.43312
357.989	1.84198
358.201	2.95826
358.414	2.31494
358.627	3.39281
358.84	2.02348
359.052	1.33366
359.265	1.06892
359.478	3.64314
359.69	-0.42325
359.903	2.77802
360.116	3.01602
360.328	0.3881
360.541	3.11016
360.753	1.04478
360.966	1.5421
361.179	1.65025
361.391	1.50659
361.604	0.96155
361.816	1.50477
362.029	1.20488
362.241	1.12326
362.454	1.2331
362.666	1.19441
362.879	1.84698
363.091	1.63333
363.304	1.17072
363.516	1.91384
363.728	0.7275
363.941	2.49916
364.153	1.29299
364.366	-0.0767
364.578	1.05684
364.79	2.49822
365.003	1.73394
365.215	1.58389
365.427	2.50318
365.639	3.28421
365.852	2.42388
366.064	4.10435
366.276	1.33255
366.488	2.52655
366.701	1.53072
366.913	2.0307
367.125	1.58942
367.337	1.76216
367.549	1.5063
367.762	1.96139
367.974	2.21701
368.186	1.327
368.398	2.97751
368.61	2.64914
368.822	2.70472
369.034	2.14254
369.246	2.77784
369.458	4.15305
369.67	1.17966
369.882	4.068
370.094	0.20349
370.306	3.80612
370.518	1.74464
370.73	0.99283
370.942	1.29661
371.154	1.75189
371.366	1.20972
371.578	2.12708
371.79	0.90272
372.002	3.12958
372.214	3.57067
372.425	2.17665
372.637	3.1036
372.849	1.97655
373.061	-0.172
373.273	2.12668
373.484	2.59316
373.696	2.72675
373.908	-0.06475
374.12	3.02654
374.331	2.56203
374.543	1.24234
374.755	0.97346
374.967	2.25054
375.178	2.56848
375.39	1.9039
375.602	2.17012
375.813	0.83104
376.025	0.6946
376.236	1.83628
376.448	1.96656
376.66	1.21209
376.871	1.36656
377.083	2.93642
377.294	2.83734
377.506	1.42883
377.717	3.01128
377.929	2.03067
378.14	1.00533
378.352	2.39706
378.563	2.1945
378.775	3.04612
378.986	1.25128
379.197	1.46869
379.409	1.4165
379.62	2.64787
379.832	2.19752
380.043	1.48809
380.254	1.90759
380.466	0.67596
380.677	4.67216
380.888	4.04765
381.1	4.2094
381.311	3.87216
381.522	1.80447
381.733	4.71659
381.945	1.5645
382.156	2.11347
382.367	1.3834
382.578	4.49135
382.789	4.41563
383.001	1.65802
383.212	2.82824
383.423	3.26618
383.634	2.91538
383.845	2.15375
384.056	1.39184
384.267	1.70242
384.478	1.6581
384.69	0.66559
384.901	2.46744
385.112	2.1227
385.323	3.05167
385.534	2.29165
385.745	2.09028
385.956	2.16889
386.167	0.78041
386.378	2.14211
386.588	0.66808
386.799	1.05099
387.01	0.18177
387.221	2.596
387.432	1.47531
387.643	3.64849
387.854	1.59109
388.065	1.31801
388.275	1.46975
388.486	1.28275
388.697	1.70227
388.908	1.53613
389.119	2.86295
389.329	3.43098
389.54	1.76543
389.751	2.23501
389.962	2.78093
390.172	2.07575
390.383	1.36409
390.594	1.34165
390.804	1.1282
391.015	1.25225
391.226	1.90012
391.436	2.30016
391.647	2.12304
391.858	2.29179
392.068	0.4085
392.279	0.64135
392.489	1.80289
392.7	2.88019
392.91	0.88168
393.121	1.22168
393.331	2.36797
393.542	2.97591
393.752	2.29678
393.963	1.98803
394.173	1.91635
394.384	2.35794
394.594	1.74135
394.804	0.93092
395.015	1.87724
395.225	2.4221
395.436	0.98657
395.646	2.5488
395.856	1.27672
396.067	0.77666
396.277	2.8125
396.487	2.37091
396.697	2.14875
396.908	2.70561
397.118	2.76874
397.328	2.2086
397.538	2.82486
397.749	1.4052
397.959	2.76843
398.169	2.81904
398.379	0.82905
398.589	2.67376
398.8	2.31367
399.01	2.23857
399.22	1.85472
399.43	4.28272
399.64	1.86643
399.85	2.85443
400.06	2.20128
400.27	1.73836
400.48	2.29387
400.69	3.46203
400.9	2.16003
401.11	1.58764
401.32	3.20113
401.53	1.90309
401.74	3.62446
401.95	3.08398
402.16	1.89679
402.37	2.90355
402.58	1.9447
402.79	3.00988
403	3.16279
403.209	1.92838
403.419	3.37482
403.629	2.18781
403.839	3.38285
404.049	3.52054
404.258	2.10086
404.468	2.11872
404.678	3.45783
404.888	3.66591
405.097	2.1924
405.307	2.64535
405.517	3.27725
405.727	3.19151
405.936	2.32572
406.146	3.32732
406.356	4.05625
406.565	2.83735
406.775	2.459
406.984	2.48775
407.194	4.7507
407.404	2.98335
407.613	3.29872
407.823	3.73978
408.032	4.10233
408.242	4.1249
408.451	2.68405
408.661	2.96969
408.87	4.74272
409.08	2.7626
409.289	3.62655
409.499	3.45305
409.708	3.35449
409.918	1.51679
410.127	3.51488
410.336	4.69082
410.546	4.18502
410.755	3.01544
410.964	2.92066
411.174	2.39715
411.383	3.72088
411.592	3.80343
411.802	2.58533
412.011	4.1631
412.22	3.4423
412.429	4.56079
412.639	4.8601
412.848	4.62648
413.057	4.98966
413.266	4.69148
413.475	3.67673
413.685	4.34744
413.894	4.46627
414.103	4.76421
414.312	4.59744
414.521	3.62352
414.73	4.21669
414.939	5.69164
415.148	4.24279
415.357	4.26164
415.566	4.00586
415.776	3.9407
415.985	3.68357
416.194	4.84085
416.403	5.69345
416.611	2.98598
416.82	3.78905
417.029	4.49867
417.238	3.62476
417.447	3.64045
417.656	4.11902
417.865	3.76979
418.074	4.21172
418.283	4.35942
418.492	5.27358
418.7	5.06925
418.909	5.93062
419.118	4.81681
419.327	5.11145
419.536	4.89228
419.744	4.52763
419.953	5.94403
420.162	5.85158
420.371	4.96911
420.579	5.25012
420.788	6.15889
420.997	6.40435
421.205	6.25172
421.414	6.08075
421.623	6.38934
421.831	5.70562
422.04	6.54575
422.249	5.59896
422.457	6.05573
422.666	5.40276
422.874	6.28096
423.083	6.46338
423.291	6.39938
423.5	6.2363
423.708	6.4431
423.917	7.0753
424.125	6.42176
424.334	6.1938
424.542	8.10642
424.751	7.27644
424.959	6.94514
425.167	7.37076
425.376	7.1632
425.584	6.18032
425.793	6.31409
426.001	5.21777
426.209	6.37641
426.418	5.21988
426.626	5.2898
426.834	5.09812
427.042	5.57256
427.251	4.92938
427.459	6.26815
427.667	5.4516
427.875	4.39297
428.084	5.14337
428.292	6.54331
428.5	6.02909
428.708	4.71935
428.916	4.72892
429.124	5.626
429.333	5.2985
429.541	5.42462
429.749	5.55611
429.957	5.6177
430.165	7.51355
430.373	4.50954
430.581	5.50481
430.789	6.71972
430.997	5.39503
431.205	4.92318
431.413	5.76982
431.621	5.32203
431.829	6.29112
432.037	5.46877
432.245	6.00571
432.453	6.0966
432.661	5.77512
432.869	7.3046
433.076	5.40054
433.284	5.83848
433.492	6.45704
433.7	6.87598
433.908	5.91072
434.116	6.0962
434.323	6.34512
434.531	6.25903
434.739	6.69165
434.947	6.68463
435.154	6.82385
435.362	6.05059
435.57	5.82326
435.778	5.54708
435.985	6.393
436.193	5.6174
436.401	7.0354
436.608	6.07567
436.816	5.74447
437.023	7.27093
437.231	7.65494
437.439	6.20576
437.646	6.69935
437.854	6.48154
438.061	6.84275
438.269	5.97848
438.476	7.04133
438.684	6.50935
438.891	6.14556
439.099	6.01563
439.306	5.45941
439.514	5.81889
439.721	6.9272
439.929	5.87758
440.136	6.98793
440.343	6.78118
440.551	6.50186
440.758	8.24458
440.965	6.99869
441.173	6.80969
441.38	6.30948
441.587	6.94102
441.795	6.45492
442.002	6.60747
442.209	6.85469
442.416	6.95092
442.624	7.06919
442.831	6.83129
443.038	6.17493
443.245	5.85816
443.452	6.36629
443.66	7.21165
443.867	6.2994
444.074	6.05282
444.281	6.1292
444.488	6.28034
444.695	6.63682
444.902	6.30942
445.109	7.15195
445.316	6.46688
445.523	6.68671
445.73	6.53468
445.937	7.23979
446.144	7.87712
446.351	8.23724
446.558	7.04336
446.765	8.63859
446.972	8.37194
447.179	7.82364
447.386	8.36867
447.593	7.004
447.8	8.01531
448.007	6.83159
448.214	6.849
448.42	6.46745
448.627	7.77403
448.834	6.6727
449.041	6.48987
449.248	6.54091
449.454	7.26193
449.661	7.80146
449.868	6.37584
450.075	6.16786
450.281	5.44584
450.488	5.95716
450.695	5.84539
450.901	6.08982
451.108	6.2211
451.315	7.4191
451.521	6.20978
451.728	7.46675
451.935	6.29759
452.141	6.41593
452.348	6.73827
452.554	6.63813
452.761	6.33481
452.967	7.96765
453.174	6.86404
453.38	6.88955
453.587	5.85128
453.793	6.64823
454	7.21848
454.206	8.25709
454.413	7.41559
454.619	7.16875
454.825	6.29289
455.032	7.08333
455.238	7.39763
455.445	5.78226
455.651	6.95521
455.857	5.24755
456.064	6.55181
456.27	6.49387
456.476	6.2257
456.682	5.58893
456.889	6.83528
457.095	7.04709
457.301	8.41224
457.507	6.94428
457.714	6.93557
457.92	6.71909
458.126	6.02045
458.332	6.71769
458.538	6.62971
458.744	6.65548
458.951	6.62569
459.157	8.29358
459.363	7.33421
459.569	7.41832
459.775	8.12693
459.981	7.57437
460.187	8.04602
460.393	8.13677
460.599	8.54478
460.805	7.53739
461.011	7.38064
461.217	8.15705
461.423	8.04702
461.629	7.23475
461.835	7.68553
462.041	6.90665
462.247	8.28013
462.453	6.83452
462.658	6.84595
462.864	7.67837
463.07	7.22882
463.276	7.0999
463.482	7.0684
463.688	8.40561
463.893	6.39605
464.099	6.65369
464.305	8.34033
464.511	6.69876
464.716	6.78493
464.922	7.59907
465.128	6.29978
465.333	8.18933
465.539	7.7409
465.745	7.28445
465.95	7.30048
466.156	9.3624
466.362	8.04852
466.567	6.98273
466.773	6.87739
466.978	8.27144
467.184	6.291
467.389	5.76432
467.595	7.39774
467.8	6.54423
468.006	8.26181
468.211	8.11699
468.417	6.34377
468.622	7.47458
468.828	7.63587
469.033	7.37171
469.239	9.34427
469.444	6.68099
469.649	7.87886
469.855	7.03201
470.06	7.34003
470.266	6.21741
470.471	7.6718
470.676	7.62628
470.881	5.64015
471.087	8.59873
471.292	8.88309
471.497	6.17007
471.703	7.1928
471.908	6.96537
472.113	7.25429
472.318	7.98369
472.523	6.49197
472.729	7.61306
472.934	7.82493
473.139	7.10662
473.344	7.77049
473.549	8.25833
473.754	6.6869
473.959	9.147
474.164	6.86721
474.369	7.11137
474.575	7.85012
474.78	7.40551
474.985	6.93214
475.19	5.91167
475.395	7.02095
475.6	7.39042
475.804	8.53979
476.009	7.49155
476.214	7.10422
476.419	6.8895
476.624	6.3223
476.829	6.81294
477.034	8.00756
477.239	7.11565
477.444	7.95161
477.648	8.03358
477.853	7.94541
478.058	7.14549
478.263	7.07701
478.468	6.86718
478.672	7.07403
478.877	8.75489
479.082	8.99214
479.287	7.80034
479.491	7.53302
479.696	6.72307
479.901	8.32892
480.105	8.13956
480.31	7.04265
480.515	7.76549
480.719	9.45015
480.924	7.26064
481.128	6.8474
481.333	7.93841
481.538	7.92647
481.742	7.45454
481.947	8.35263
482.151	8.88915
482.356	9.51723
482.56	11.41408
482.765	12.72175
482.969	15.50296
483.174	17.40172
483.378	20.34414
483.582	20.88064
483.787	22.35299
483.991	22.82639
484.196	22.77683
484.4	22.19719
484.604	22.49954
484.809	20.13384
485.013	19.18293
485.217	17.02743
485.422	15.00606
485.626	13.53737
485.83	12.91135
486.034	12.47093
486.239	13.11686
486.443	13.25816
486.647	13.43981
486.851	14.70908
487.055	16.17496
487.26	15.58691
487.464	16.65779
487.668	16.21469
487.872	16.41629
488.076	16.80455
488.28	15.92022
488.484	14.6504
488.688	14.12239
488.892	13.71055
489.096	12.63946
489.3	11.50193
489.504	10.77121
489.708	10.38949
489.912	10.15246
490.116	9.89361
490.32	9.48166
490.524	10.72044
490.728	11.52161
490.932	12.0597
491.136	12.86556
491.34	14.03538
491.544	14.58276
491.748	14.04622
491.951	13.97339
492.155	13.53714
492.359	13.17172
492.563	11.53964
492.767	11.01708
492.97	9.83122
493.174	8.53896
493.378	8.41756
493.582	7.88749
493.785	8.22258
493.989	8.47651
494.193	8.43566
494.396	8.10239
494.6	8.63403
494.804	7.84662
495.007	7.64437
495.211	7.83109
495.414	7.90805
495.618	8.16202
495.822	8.97406
496.025	8.11395
496.229	8.71116
496.432	7.71263
496.636	8.22155
496.839	8.03056
497.043	9.05399
497.246	8.24434
497.45	7.92056
497.653	8.32099
497.856	8.21812
498.06	7.56153
498.263	7.99968
498.467	7.99881
498.67	8.84621
498.873	8.38667
499.077	7.91755
499.28	7.9758
499.483	8.22863
499.686	8.67133
499.89	8.24561
500.093	8.69946
500.296	7.51773
500.499	9.16261
500.703	8.03087
500.906	8.3513
501.109	9.28489
501.312	8.13588
501.515	7.95805
501.719	8.3356
501.922	8.75345
502.125	8.04189
502.328	7.98291
502.531	7.40557
502.734	8.20606
502.937	6.77264
503.14	8.21385
503.343	7.66422
503.546	7.87109
503.749	7.60388
503.952	8.50993
504.155	7.64133
504.358	8.44036
504.561	8.4366
504.764	7.13842
504.967	8.26921
505.17	8.09541
505.373	9.33441
505.576	8.02835
505.778	8.58304
505.981	7.52408
506.184	8.87059
506.387	6.82611
506.59	9.48266
506.793	8.85471
506.995	8.48024
507.198	6.66055
507.401	8.57475
507.604	8.34824
507.806	7.38633
508.009	7.83724
508.212	8.80493
508.414	7.77982
508.617	7.81542
508.82	8.12883
509.022	9.52263
509.225	8.48264
509.427	7.3045
509.63	9.20403
509.833	8.152
510.035	7.96656
510.238	7.27832
510.44	9.1653
510.643	7.10425
510.845	9.5153
511.048	8.55115
511.25	7.90242
511.453	8.13029
511.655	8.54824
511.858	8.05382
512.06	8.81728
512.262	8.52122
512.465	8.96417
512.667	8.02649
512.869	7.40326
513.072	8.58714
513.274	8.9587
513.476	8.7283
513.679	9.09067
513.881	7.67162
514.083	9.50363
514.286	7.89054
514.488	7.81326
514.69	7.59951
514.892	7.39949
515.094	8.80508
515.297	7.7961
515.499	8.37545
515.701	7.6734
515.903	9.62427
516.105	9.63493
516.307	8.75077
516.509	6.83273
516.711	7.48035
516.913	8.36819
517.116	8.44626
517.318	8.23183
517.52	8.99406
517.722	8.81525
517.924	7.73963
518.126	8.92423
518.328	8.15709
518.529	8.8525
518.731	9.85612
518.933	8.17435
519.135	8.51501
519.337	9.6183
519.539	8.96279
519.741	7.33908
519.943	8.38633
520.145	8.31777
520.346	9.09696
520.548	8.21687
520.75	8.7866
520.952	8.23649
521.153	8.6876
521.355	8.82592
521.557	7.71895
521.759	8.42122
521.96	8.52477
522.162	7.62292
522.364	9.00242
522.565	7.84505
522.767	8.94515
522.969	9.33488
523.17	8.74702
523.372	8.56872
523.573	8.30506
523.775	8.33165
523.977	7.60389
524.178	9.80183
524.38	8.10109
524.581	9.10051
524.783	8.28028
524.984	8.97224
525.186	8.55488
525.387	9.07375
525.589	8.60892
525.79	8.31366
525.991	8.25594
526.193	9.01424
526.394	8.10987
526.596	9.30804
526.797	9.54892
526.998	9.05143
527.2	9.4389
527.401	11.6689
527.602	12.63921
527.803	15.06003
528.005	16.0735
528.206	17.32274
528.407	18.24212
528.608	18.04778
528.81	18.44487
529.011	17.6552
529.212	18.27584
529.413	16.82351
529.614	15.55438
529.815	14.84051
530.017	13.47564
530.218	11.75131
530.419	10.30076
530.62	9.94858
530.821	9.49933
531.022	8.18655
531.223	9.41969
531.424	9.34571
531.625	9.25061
531.826	8.93029
532.027	9.57897
532.228	11.05992
532.429	10.86195
532.63	11.08624
532.831	12.09974
533.032	11.95179
533.233	12.96044
533.433	12.49024
533.634	12.60515
533.835	11.77795
534.036	11.11282
534.237	10.84577
534.438	9.87566
534.638	8.55159
534.839	8.78623
535.04	9.19093
535.241	8.89467
535.441	10.21245
535.642	9.22333
535.843	8.18477
536.043	8.41248
536.244	8.4996
536.445	8.59113
536.645	9.453
536.846	9.27843
537.047	9.81227
537.247	8.48004
537.448	8.72733
537.648	9.08606
537.849	8.85496
538.049	8.9694
538.25	9.36939
538.451	9.39287
538.651	8.20249
538.851	9.28897
539.052	9.85853
539.252	9.51767
539.453	8.74901
539.653	9.16883
539.854	8.86256
540.054	8.85233
540.254	9.81665
540.455	11.08186
540.655	10.93439
540.855	12.42499
541.056	13.59471
541.256	13.44903
541.456	14.31664
541.657	13.49609
541.857	14.44872
542.057	12.63734
542.257	12.08199
542.458	12.46713
542.658	11.90576
542.858	9.97449
543.058	10.41939
543.258	9.60532
543.458	8.44927
543.659	8.33141
543.859	9.467
544.059	9.67715
544.259	9.04171
544.459	9.70071
544.659	8.63187
544.859	9.32773
545.059	8.67731
545.259	9.45785
545.459	9.04616
545.659	9.51009
545.859	8.99581
546.059	9.13811
546.259	8.36197
546.459	8.14596
546.659	8.32744
546.859	9.57646
547.059	9.13778
547.258	9.46647
547.458	9.41164
547.658	8.24557
547.858	8.17698
548.058	9.26174
548.258	8.73962
548.457	7.90197
548.657	10.2924
548.857	8.52067
549.057	9.28464
549.256	9.29747
549.456	8.12235
549.656	6.85216
549.855	10.47181
550.055	8.06504
550.255	10.20899
550.454	9.18876
550.654	9.21298
550.853	9.95756
551.053	9.32491
551.253	8.80354
551.452	9.09446
551.652	7.72012
551.851	7.49424
552.051	8.45665
552.25	8.24038
552.45	7.98237
552.649	8.52168
552.849	8.10318
553.048	8.6687
553.248	9.47418
553.447	7.977
553.646	9.29328
553.846	10.42247
554.045	9.63116
554.244	7.61434
554.444	10.25017
554.643	7.89982
554.842	10.09216
555.042	10.83543
555.241	8.02702
555.44	7.46876
555.64	9.33104
555.839	10.41881
556.038	9.12415
556.237	7.52354
556.436	8.89177
556.636	8.81791
556.835	7.94416
557.034	10.21036
557.233	8.65919
557.432	7.37702
557.631	9.9298
557.83	8.38091
558.029	8.02829
558.228	7.88748
558.427	7.72877
558.626	9.10511
558.825	7.87967
559.024	8.80132
559.223	10.48453
559.422	8.21273
559.621	8.95886
559.82	6.1589
560.019	8.63296
560.218	8.2317
560.417	5.88074
560.616	8.12784
560.815	12.21498
561.014	7.48764
561.212	10.35298
561.411	8.85353
561.61	6.98416
561.809	8.43459
562.008	9.93694
562.206	8.21674
562.405	9.35935
562.604	8.09635
562.803	8.96756
563.001	8.41969
563.2	7.21507
563.399	9.22636
563.597	7.57038
563.796	8.58614
563.995	7.14743
564.193	9.31345
564.392	8.32933
564.59	10.91193
564.789	6.73869
564.988	8.21665
565.186	8.89634
565.385	8.82483
565.583	8.51739
565.782	8.4692
565.98	8.44299
566.179	8.64856
566.377	7.75687
566.575	7.97612
566.774	10.00473
566.972	9.57685
567.171	10.97585
567.369	10.10664
567.567	9.12666
567.766	9.16523
567.964	6.98647
568.162	9.22249
568.361	9.71021
568.559	8.54598
568.757	9.01868
568.956	8.94538
569.154	8.54986
569.352	9.36453
569.55	8.5592
569.748	8.64613
569.947	7.9357
570.145	7.71775
570.343	7.5305
570.541	9.59776
570.739	7.40668
570.937	8.67051
571.135	8.85147
571.333	10.56122
571.532	10.28412
571.73	8.8254
571.928	9.77482
572.126	9.14226
572.324	8.24723
572.522	10.11614
572.72	11.56112
572.918	9.04435
573.116	9.24568
573.313	8.79482
573.511	8.65977
573.709	7.90165
573.907	9.60016
574.105	8.4162
574.303	7.16431
574.501	7.24968
574.699	9.34326
574.896	9.28207
575.094	9.24058
575.292	7.30624
575.49	9.73039
575.688	8.5032
575.885	10.17223
576.083	10.78805
576.281	9.4889
576.478	8.03048
576.676	9.12784
576.874	7.17531
577.071	8.64388
577.269	11.37316
577.467	8.76345
577.664	8.73887
577.862	10.01193
578.059	7.61012
578.257	9.84544
578.455	8.13243
578.652	8.78217
578.85	6.36731
579.047	8.57531
579.245	8.33502
579.442	8.45057
579.64	8.5257
579.837	6.25197
580.034	12.03283
580.232	7.97371
580.429	7.20511
580.627	8.9927
580.824	10.39326
581.021	8.96299
581.219	7.94503
581.416	7.35379
581.613	10.26751
581.811	10.36836
582.008	7.40952
582.205	9.81572
582.402	8.76831
582.6	10.31162
582.797	8.60049
582.994	9.08029
583.191	9.35118
583.388	8.76346
583.586	9.48716
583.783	9.99033
583.98	7.78474
584.177	9.07329
584.374	5.23087
584.571	8.2783
584.768	8.4919
584.965	8.00518
585.162	9.30769
585.359	11.04288
585.556	8.95618
585.753	9.04268
585.95	7.06703
586.147	7.68316
586.344	9.15359
586.541	8.3627
586.738	7.17012
586.935	8.41606
587.132	7.71921
587.329	9.9319
587.526	8.3197
587.722	15.35753
587.919	7.06271
588.116	9.13316
588.313	10.72571
588.51	11.73532
588.706	8.1815
588.903	9.42236
589.1	9.55679
589.297	12.26788
589.493	8.95443
589.69	9.23479
589.887	8.13522
590.083	7.56797
590.28	8.01724
590.477	9.7372
590.673	9.72921
590.87	10.34276
591.067	8.52184
591.263	9.38748
591.46	8.7868
591.656	8.12603
591.853	10.11836
592.049	7.35369
592.246	8.02757
592.442	10.40391
592.639	10.39824
592.835	7.64209
593.032	9.38933
593.228	7.14789
593.425	6.71438
593.621	6.7813
593.817	9.19765
594.014	7.87822
594.21	8.82807
594.406	9.81691
594.603	9.64057
594.799	8.25833
594.995	5.8559
595.192	10.16063
595.388	8.12734
595.584	8.47207
595.78	7.14401
595.977	11.97182
596.173	10.80598
596.369	8.44289
596.565	7.75313
596.761	7.04974
596.957	10.33255
597.154	7.98681
597.35	8.33644
597.546	8.37995
597.742	9.83264
597.938	9.08334
598.134	8.04228
598.33	9.3795
598.526	10.49262
598.722	9.67114
598.918	11.19257
599.114	9.7185
599.31	7.6747
599.506	8.92392
599.702	8.14522
599.898	8.89003
600.094	9.56418
600.29	9.71763
600.485	10.16313
600.681	8.08884
600.877	11.19304
601.073	9.1984
601.269	11.36621
601.465	10.58186
601.66	7.44259
601.856	6.4229
602.052	11.30756
602.248	8.47739
602.443	6.64573
602.639	7.322
602.835	8.08171
603.03	7.71658
603.226	10.15361
603.422	7.55908
603.617	8.38051
603.813	8.46444
604.009	8.56521
604.204	10.56623
604.4	7.21669
604.595	10.11198
604.791	7.70249
604.986	9.22617
605.182	7.92407
605.377	8.88246
605.573	8.3508
605.768	9.1945
605.964	9.65482
606.159	9.8699
606.355	10.54357
606.55	8.25667
606.746	10.65128
606.941	8.61789
607.136	11.77437
607.332	13.31592
607.527	7.02879
607.722	9.27592
607.918	8.6221
608.113	7.89852
608.308	10.4431
608.503	9.76615
608.699	9.42008
608.894	9.67643
609.089	8.03069
609.284	9.17701
609.479	8.35575
609.675	10.04533
609.87	8.51502
610.065	10.10193
610.26	10.46789
610.455	10.18997
610.65	9.00778
610.845	9.258
611.04	10.34651
611.235	8.92017
611.43	8.59372
611.625	7.36972
611.82	11.42649
612.015	7.902
612.21	10.83564
612.405	6.7818
612.6	11.78593
612.795	10.83429
612.99	10.2132
613.185	7.71845
613.38	7.78718
613.575	8.97045
613.77	13.58861
613.965	6.80993
614.159	7.44765
614.354	11.13174
614.549	10.92143
614.744	10.27981
614.938	7.22921
615.133	7.21859
615.328	11.44242
615.523	10.38698
615.717	13.84741
615.912	7.99292
616.107	9.50947
616.301	8.72031
616.496	8.13937
616.691	12.01622
616.885	10.48518
617.08	14.64509
617.274	11.28371
617.469	12.84845
617.664	10.65068
617.858	8.5167
618.053	10.01115
618.247	8.93369
618.442	5.52357
618.636	12.04453
618.831	8.40244
619.025	8.37084
619.219	14.02807
619.414	4.07596
619.608	9.03363
619.803	8.09122
619.997	13.00971
620.191	11.16959
620.386	9.74283
620.58	9.34527
620.774	6.56232
620.969	6.88527
621.163	9.24754
621.357	7.22352
621.551	8.77582
621.746	10.17727
621.94	8.4999
622.134	15.43503
622.328	13.22187
622.522	6.4558
622.716	11.27611
622.911	11.71562
623.105	11.24049
623.299	10.41591
623.493	15.27905
623.687	7.75898
623.881	8.85284
624.075	10.50194
624.269	11.69677
624.463	6.05046
624.657	6.75864
624.851	10.84257
625.045	11.15243
625.239	11.25524
625.433	8.62529
625.627	12.06802
625.821	8.49922
626.015	8.17014
626.209	9.62818
626.403	7.67272
626.596	10.50425
626.79	11.17674
626.984	7.11116
627.178	10.33943
627.372	10.18257
627.565	10.93348
627.759	7.15597
627.953	7.33302
628.147	10.6537
628.34	10.61857
628.534	12.75027
628.728	9.34932
628.921	11.15621
629.115	10.62176
629.309	11.29733
629.502	11.80535
629.696	9.98372
629.89	9.16157
630.083	10.10531
630.277	10.58049
630.47	13.25062
630.664	8.94166
630.857	6.84235
631.051	11.24649
631.244	12.35391
631.438	11.01379
631.631	8.11827
631.825	12.70905
632.018	11.39348
632.212	13.59746
632.405	12.10505
632.598	8.85404
632.792	10.13445
632.985	5.53197
633.178	9.08375
633.372	9.43035
633.565	9.50681
633.758	12.67238
633.952	7.7561
634.145	8.00063
634.338	9.84803
634.531	8.37379
634.724	8.36648
634.918	9.83112
635.111	9.04252
635.304	9.80647
635.497	14.50505
635.69	10.35949
635.883	12.26225
636.077	8.159
636.27	10.98166
636.463	10.30543
636.656	10.5956
636.849	9.2694
637.042	11.59686
637.235	13.63265
637.428	11.81035
637.621	12.29245
637.814	13.4341
638.007	13.88883
638.2	12.85528
638.393	14.3001
638.586	8.10894
638.778	9.54948
638.971	10.55802
639.164	14.42433
639.357	10.80582
639.55	13.47977
639.743	12.21283
639.935	11.3724
640.128	15.47424
640.321	12.55627
640.514	10.61661
640.707	16.37528
640.899	11.82497
641.092	6.23472
641.285	29.39818
641.477	5.54741
641.67	16.83033
641.863	13.58403
642.055	11.15004
642.248	10.38239
642.441	9.56264
642.633	12.74712
642.826	13.30755
643.018	14.02065
643.211	15.36984
643.403	15.75497
643.596	16.12287
643.788	16.27598
643.981	10.85532
644.173	13.32142
644.366	11.21599
644.558	6.09719
644.751	14.16391
644.943	7.71021
645.135	15.38763
645.328	15.72353
645.52	12.97328
645.712	14.81421
645.905	19.48835
646.097	8.68767
646.289	11.96102
646.482	17.01554
646.674	9.29412
646.866	14.4397
647.058	12.5651
647.251	8.29052
647.443	9.97647
647.635	10.84839
647.827	8.41578
648.019	9.86013
648.211	11.89478
648.404	11.59611
648.596	16.13039
648.788	12.22177
648.98	11.8886
649.172	12.76859
649.364	12.94346
649.556	7.12985
649.748	18.38309
649.94	9.17401
650.132	13.11912
650.324	8.86664
650.516	9.77426
650.708	15.23057
650.9	8.31384
651.092	10.04736
651.284	7.58276
651.476	8.35259
651.667	13.05109
651.859	14.98039
652.051	10.95582
652.243	11.48389
652.435	9.79276
652.627	13.3184
652.818	12.41889
653.01	7.41553
653.202	9.23207
653.394	10.72311
653.585	12.65796
653.777	24.87776
653.969	15.91301
654.16	14.97785
654.352	8.9471
654.544	10.77408
654.735	15.25743
654.927	12.16311
655.118	16.33782
655.31	13.75261
655.502	15.15146
655.693	10.86177
655.885	13.70554
656.076	15.40335
656.268	12.68909
656.459	16.57001
656.651	15.76698
656.842	10.7549
657.034	10.25057
657.225	14.13911
657.416	15.72404
657.608	15.99996
657.799	12.18175
657.99	15.60865
658.182	10.65294
658.373	10.42116
658.564	14.30879
658.756	12.14016
658.947	11.24951
659.138	9.58521
659.33	10.27584
659.521	10.17331
659.712	11.26052
659.903	11.19224
660.094	10.98279
660.286	7.65162
660.477	17.12835
660.668	13.83648
660.859	12.02143
661.05	7.72177
661.241	14.33173
661.432	13.34395
661.623	12.0478
661.814	10.52618
662.006	7.26476
662.197	13.52547
662.388	16.49669
662.579	13.10944
662.77	15.91014
662.96	20.76913
663.151	15.43134
663.342	7.91461
663.533	14.76044
663.724	12.61749
663.915	18.2362
664.106	13.32264
664.297	18.58818
664.488	14.88914
664.678	11.12103
664.869	14.59005
665.06	15.33075
665.251	12.70435
665.442	14.92928
665.632	9.14443
665.823	18.78278
666.014	4.14253
666.204	15.859
666.395	17.48171
666.586	22.015
666.776	16.00861
666.967	19.15954
667.158	13.02641
667.348	17.51306
667.539	9.76094
667.729	16.15039
667.92	11.3537
668.111	16.18699
668.301	14.87122
668.492	12.30528
668.682	14.65102
668.873	12.6588
669.063	9.51457
669.253	13.91558
669.444	16.85556
669.634	12.54639
669.825	20.99395
670.015	16.98658
670.206	10.9312
670.396	19.62135
670.586	13.41221
670.777	15.26959
670.967	6.35884
671.157	12.62379
671.347	11.12311
671.538	19.2638
671.728	16.18991
671.918	20.47913
672.108	16.34052
672.299	13.57764
672.489	15.12491
672.679	12.34694
672.869	15.21188
673.059	19.72941
673.249	15.53315
673.44	9.32119
673.63	13.41518
673.82	17.84587
674.01	10.8695
674.2	16.33242
674.39	23.90335
674.58	17.39288
674.77	13.92254
674.96	14.14809
675.15	29.63788
675.34	19.19615
675.53	15.3292
675.72	14.00714
675.91	8.9449
676.099	20.89119
676.289	22.82193
676.479	18.09668
676.669	12.71018
676.859	15.91123
677.049	11.15091
677.238	14.49521
677.428	20.80402
677.618	17.53801
677.808	19.40491
677.997	16.21942
678.187	11.07158
678.377	15.03734
678.567	13.26665
678.756	12.4504
678.946	13.71257
679.136	10.00167
679.325	11.50492
679.515	10.66222
679.704	10.27224
679.894	16.48686
680.084	14.39325
680.273	17.92556
680.463	11.20494
680.652	11.25523
680.842	13.69409
681.031	17.57738
681.221	12.15074
681.41	15.88329
681.6	13.16788
681.789	17.61951
681.978	18.56931
682.168	15.97025
682.357	15.61682
682.547	17.07212
682.736	15.28941
682.925	19.67516
683.115	18.58699
683.304	18.31067
683.493	16.26783
683.682	16.814
683.872	17.03316
684.061	20.6075
684.25	17.43249
684.439	23.46403
684.629	17.74025
684.818	29.5991
685.007	13.90664
685.196	15.38654
685.385	22.76304
685.574	18.07907
685.763	17.37834
685.952	16.29305
686.142	10.95351
686.331	21.48309
686.52	8.31945
686.709	23.3256
686.898	22.52671
687.087	19.48499
687.276	23.88451
687.465	20.205
687.654	15.56287
687.842	23.29309
688.031	10.5766
688.22	22.50428
688.409	17.87682
688.598	16.88254
688.787	26.86115
688.976	17.21375
689.165	24.92121
689.353	14.99799
689.542	18.90967
689.731	21.20229
689.92	25.92691
690.108	20.82937
690.297	15.11542
690.486	17.54304
690.675	22.13229
690.863	26.04255
691.052	23.60005
691.241	19.54769
691.429	18.82023
691.618	24.40911
691.806	11.81297
691.995	16.45528
692.184	18.34871
692.372	15.40004
692.561	18.27502
692.749	19.59074
692.938	30.42428
693.126	22.37235
693.315	18.51888
693.503	20.58427
693.692	21.06847
693.88	24.21346
694.068	29.23054
694.257	17.88019
694.445	21.21121
694.634	9.32131
694.822	24.30942
695.01	24.75592
695.199	26.85873
695.387	27.29018
695.575	24.50863
695.763	18.07724
695.952	15.03768
696.14	12.55503
696.328	16.44921
696.516	19.27928
696.705	19.9033
696.893	20.26577
697.081	10.37017
697.269	21.89587
697.457	14.29428
697.645	13.21561
697.833	20.70756
698.021	14.42839
698.21	14.67201
698.398	16.30645
698.586	13.22525
698.774	12.02065
698.962	16.68875
699.15	13.99858
699.338	11.13873
699.526	18.9196
699.714	14.35803
699.901	14.51931
700.089	21.86425
700.277	14.49669
700.465	17.13008
700.653	21.74817
700.841	19.90667
701.029	13.81368
701.217	23.98918
701.404	20.12913
701.592	26.13156
701.78	29.54866
701.968	17.27739
702.155	18.03965
702.343	12.04453
702.531	23.84192
702.718	20.81957
702.906	19.43475
703.094	16.2567
703.281	26.37587
703.469	19.42363
703.657	25.58633
703.844	36.56881
704.032	29.43527
704.219	17.01522
704.407	22.73448
704.595	27.10576
704.782	20.6426
704.97	17.50115
705.157	19.68732
705.345	27.54383
705.532	36.84403
705.719	23.98857
705.907	30.35518
706.094	20.18469
706.282	30.32886
706.469	19.94268
706.656	22.18525
706.844	20.06282
707.031	25.90025
707.218	23.588
707.406	29.93791
707.593	25.98313
707.78	25.09594
707.968	22.05767
708.155	17.68407
708.342	25.14211
708.529	24.94553
708.716	22.79
708.904	30.96288
709.091	26.22666
709.278	16.08903
709.465	33.19049
709.652	32.19809
709.839	30.48052
710.026	23.88071
710.213	12.81862
710.4	24.49172
710.587	27.00354
710.774	29.54786
710.961	28.36542
711.148	22.00359
711.335	28.96073
711.522	21.52378
711.709	25.21032
711.896	34.77435
712.083	28.0914
712.27	18.25319
712.457	24.15441
712.644	14.85837
712.831	36.31822
713.017	23.81091
713.204	26.86601
713.391	19.9816
713.578	30.10623
713.765	33.62523
713.951	27.79153
714.138	44.53629
714.325	28.18597
714.512	24.88568
714.698	19.80551
714.885	34.40411
715.072	27.80766
715.258	25.85317
715.445	21.04926
715.631	32.07455
715.818	10.94495
716.005	21.16729
716.191	28.48882
716.378	22.06458
716.564	30.8562
716.751	20.88639
716.937	22.36921
717.124	33.12615
717.31	20.9449
717.497	37.42627
717.683	21.16274
717.869	42.01237
718.056	22.8257
718.242	30.84983
718.429	24.71609
718.615	18.95132
718.801	27.28042
718.988	33.64394
719.174	29.5311
719.36	25.65928
719.547	34.74616
719.733	29.64571
719.919	29.29906
720.105	33.35873
720.291	26.4547
720.478	28.54959
720.664	27.00818
720.85	21.54587
721.036	47.53906
721.222	38.34469
721.408	29.3711
721.595	42.55685
721.781	41.16451
721.967	36.42728
722.153	38.9312
722.339	31.04504
722.525	30.77318
722.711	23.6611
722.897	17.98499
723.083	24.94437
723.269	37.07459
723.455	49.38645
723.641	54.21782
723.827	31.08128
724.012	32.59649
724.198	25.95721
724.384	38.32151
724.57	30.68909
724.756	18.04208
724.942	15.74377
725.127	35.56871
725.313	40.80227
725.499	38.04709
725.685	44.36862
725.87	30.80613
726.056	22.96678
726.242	38.31881
726.428	17.78247
726.613	36.23855
726.799	26.16243
726.985	21.07092
727.17	16.81837
727.356	43.92442
727.541	21.77295
727.727	25.91252
727.913	35.79068
728.098	24.75928
728.284	33.84858
728.469	19.14936
728.655	22.19039
728.84	36.30575
729.026	34.00539
729.211	37.85032
729.397	33.52774
729.582	35.84872
729.767	28.96242
729.953	33.54642
730.138	37.22948
730.323	12.97706
730.509	21.45655
730.694	42.51118
730.879	34.35655
731.065	31.17418
731.25	48.22829
731.435	34.44902
731.621	17.24327
731.806	25.34064
731.991	32.0913
732.176	16.53277
732.361	41.60036
732.547	34.46239
732.732	18.31366
732.917	49.22057
733.102	19.96558
733.287	24.93729
733.472	31.46535
733.657	32.17741
733.842	18.87408
734.027	27.93688
734.212	28.74446
734.397	24.75651
734.582	32.63985
734.767	38.9507
734.952	43.29927
735.137	10.05466
735.322	44.2753
735.507	32.6397
735.692	33.94473
735.877	52.78151
736.062	50.65029
736.247	35.60169
736.431	28.8354
736.616	43.69218
736.801	34.34884
736.986	32.63838
737.171	23.54192
737.355	21.88149
737.54	43.29221
737.725	31.82669
737.909	58.50037
738.094	26.79205
738.279	39.65118
738.463	30.72624
738.648	38.62516
738.833	37.4525
739.017	51.87331
739.202	29.80412
739.386	30.56517
739.571	24.26628
739.756	40.37774
739.94	32.67134
740.125	42.11358
740.309	26.73387
740.494	40.25735
740.678	32.39935
740.863	37.09186
741.047	34.61501
741.231	46.35796
741.416	27.21298
741.6	48.83144
741.785	25.51771
741.969	43.12259
742.153	46.81642
742.338	15.39963
742.522	32.64654
742.706	44.04001
742.89	19.26103
743.075	36.67402
743.259	48.43497
743.443	43.11413
743.627	50.70104
743.812	58.32988
743.996	12.39422
744.18	35.03189
744.364	29.61333
744.548	63.32465
744.732	35.8869
744.916	43.94026
745.1	42.37033
745.285	34.04477
745.469	40.2143
745.653	57.05756
745.837	23.3736
746.021	60.72329
746.205	46.97319
746.389	39.09324
746.573	32.57694
746.757	53.98139
746.94	31.11769
747.124	47.45939
747.308	25.42319
747.492	50.4811
747.676	31.9819
747.86	61.23633
748.044	29.71076
748.227	18.88194
748.411	80.26198
748.595	42.86223
748.779	25.41223
748.963	42.5861
749.146	37.25323
749.33	27.82856
749.514	26.68384
749.697	47.85829
749.881	26.50282
750.065	25.11807
750.248	37.38285
750.432	65.46093
750.616	38.93013
750.799	19.71071
750.983	60.29422
751.166	68.41003
751.35	20.68164
751.533	48.61096
751.717	52.60438
751.9	53.99072
752.084	30.76479
752.267	22.87944
752.451	28.96088
752.634	39.0331
752.818	42.33182
753.001	48.26273
753.184	50.52807
753.368	41.13454
753.551	2.3987
753.734	30.15399
753.918	62.61852
754.101	28.54519
754.284	45.04057
754.467	31.80538
754.651	31.78724
754.834	29.6193
755.017	50.79495
755.2	50.59385
755.384	25.60342
755.567	47.04188
755.75	54.68184
755.933	36.10722
756.116	42.75926
756.299	29.54054
756.482	29.03828
756.665	46.56412
756.848	41.12289
757.032	43.64262
757.215	20.20306
757.398	27.45333
757.581	27.98955
757.764	72.80154
757.947	37.55363
758.129	53.84536
758.312	2.55031
758.495	37.57516
758.678	39.43133
758.861	37.08478
759.044	62.9546
759.227	28.02881
759.41	29.0582
759.592	48.62656
759.775	38.51206
759.958	50.64223
760.141	21.47545
760.324	61.24833
760.506	56.60696
760.689	50.28357
760.872	67.919
761.054	43.5472
761.237	33.1834
761.42	45.66515
761.602	50.91017
761.785	41.24094
761.968	52.44047
762.15	63.92716
762.333	35.60447
762.515	42.00597
762.698	30.97417
762.88	45.47019
763.063	37.85772
763.245	45.60247
763.428	24.88241
763.61	25.07021
763.793	23.06543
763.975	38.70353
764.158	29.91126
764.34	28.9024
764.522	24.34094
764.705	33.34878
764.887	52.22791
765.069	21.32105
765.252	45.84546
765.434	47.55505
765.616	39.32276
765.799	31.44029
765.981	41.47251
766.163	29.99489
766.345	50.632
766.528	27.75045
766.71	13.35723
766.892	40.383
767.074	57.21703
767.256	36.1158
767.438	63.47567
767.62	43.31301
767.802	73.91511
767.985	48.87152
768.167	65.85456
768.349	34.34392
768.531	52.97412
768.713	46.86425
768.895	55.56652
769.077	48.44817
769.259	80.62946
769.441	113.84217
769.623	57.26715
769.804	67.19028
769.986	69.20396
770.168	87.01956
770.35	103.69368
770.532	76.70337
770.714	79.65441
770.896	86.24106
771.077	33.77246
771.259	85.49705
771.441	70.89178
771.623	89.64206
771.804	118.20365
771.986	23.81486
772.168	55.77175
772.35	90.60473
772.531	124.82633
772.713	70.33796
772.894	90.08743
773.076	62.39301
773.258	49.62589
773.439	97.39876
773.621	107.77542
773.802	39.45128
773.984	67.77768
774.166	68.94596
774.347	114.49352
774.529	89.04928
774.71	23.19566
774.891	64.4615
775.073	62.6341
775.254	110.6934
775.436	51.01579
775.617	118.11494
775.799	58.90025
775.98	114.98398
776.161	112.52757
776.343	108.49577
776.524	74.23824
776.705	61.41187
776.886	27.81652
777.068	67.93269
777.249	137.56003
777.43	115.74608
777.611	46.81777
777.793	68.86545
777.974	112.1721
778.155	61.62501
778.336	55.09386
778.517	118.18991
778.698	54.54522
778.879	24.99319
779.061	10.63237
779.242	88.83778
779.423	80.33309
779.604	68.59333
779.785	67.04882
779.966	80.92975
780.147	93.34393
780.328	99.31744
780.509	128.99059
780.69	98.25171
780.871	61.1072
781.051	31.18266
781.232	74.30621
781.413	79.3886
781.594	62.26091
781.775	57.27051
781.956	56.64594
782.137	29.71381
782.317	57.46966
782.498	75.81043
782.679	70.34453
782.86	74.77682
783.04	55.84832
783.221	77.20864
783.402	128.33008
783.583	70.83527
783.763	86.68928
783.944	61.08672
784.124	36.08962
784.305	115.22685
784.486	83.02104
784.666	62.16969
784.847	28.98902
785.027	166.16075
785.208	52.83179
785.388	54.39823
785.569	56.74591
785.749	62.64668
785.93	52.0214
786.11	35.55622
786.291	76.09159
786.471	78.77788
786.652	93.56558
786.832	63.20797
787.012	79.20528
787.193	44.25
787.373	68.8443
787.553	61.53621
787.734	77.0584
787.914	57.75986
788.094	80.19309
788.275	75.28475
788.455	55.10667
788.635	35.59143
788.815	72.6111
788.995	40.90641
789.176	37.38338
789.356	48.06707
789.536	61.09661
789.716	78.11189
789.896	46.33938
790.076	55.44153
790.256	71.50884
790.436	19.69672
790.616	47.44817
790.796	71.4373
790.976	56.42961
791.156	56.92518
791.336	83.5721
791.516	71.86548
791.696	59.87182
791.876	30.62675
792.056	67.81023
792.236	94.76874
792.416	87.82713
792.596	90.1062
792.776	80.52891
792.956	87.70029
793.135	115.42402
793.315	36.19694
793.495	100.82936
793.675	85.28962
793.854	91.96571
794.034	93.44996
794.214	43.80874
794.394	88.833
794.573	96.51907
794.753	66.76632
794.933	59.00048
795.112	76.14084
795.292	88.88112
795.472	112.23704
795.651	40.29731
795.831	68.14352
796.01	54.01013
796.19	57.00251
796.369	63.68595
796.549	83.90896
796.728	61.84695
796.908	39.44919
797.087	43.60741
797.267	71.10489
797.446	40.85285
797.626	78.56885
797.805	74.71267
797.984	49.68907
798.164	77.4296
798.343	46.49672
798.522	72.97893
798.702	68.06078
798.881	41.27035
799.06	67.08724
799.239	24.7589
799.419	44.05057
799.598	108.58005
799.777	81.94664
799.956	99.79102
800.136	57.09386
800.315	52.40323
800.494	77.48295
800.673	89.62253
800.852	92.95272
801.031	102.66467
801.21	83.02206
801.389	52.66927
801.568	80.33338
801.747	127.53529
801.926	67.05866
802.105	112.36377
802.284	64.58834
802.463	105.66567
802.642	80.43771
802.821	79.04912
803	103.27401
803.179	93.40702
803.358	102.377
803.537	50.38842
803.716	89.39673
803.895	54.89607
804.073	64.66004
804.252	65.19493
804.431	88.109
804.61	80.48299
804.789	100.80419
804.967	59.43945
805.146	61.37342
805.325	138.8184
805.503	82.3265
805.682	38.12985
805.861	144.71355
806.039	98.63489
806.218	52.91393
806.397	81.72557
806.575	74.62413
806.754	76.3302
806.932	52.34611
807.111	120.09403
807.289	98.26362
807.468	83.07338
807.646	96.90924
807.825	79.64865
808.003	86.95582
808.182	100.61098
808.36	80.10267
808.539	56.58339
808.717	114.91396
808.895	48.14943
809.074	80.16214
809.252	67.75453
809.43	108.00034
809.609	120.5887
809.787	130.99274
809.965	72.97433
810.144	72.64086
810.322	57.83127
810.5	96.33836
810.678	76.08419
810.856	143.79716
811.035	105.1861
811.213	110.17211
811.391	108.22893
811.569	74.70805
811.747	175.53365
811.925	126.61191
812.103	63.07666
812.281	58.2132
812.459	165.16153
812.637	128.19366
812.816	116.20131
812.994	148.19633
813.171	111.35211
813.349	106.25394
813.527	135.73813
813.705	130.62074
813.883	135.3711
814.061	122.51723
814.239	148.4033
814.417	160.60791
814.595	101.28677
814.773	101.1186
814.95	95.37837
815.128	106.52599
815.306	75.26026
815.484	83.63312
815.662	59.45135
815.839	54.73828
816.017	66.69374
816.195	105.14693
816.372	70.49013
816.55	123.51834
816.728	122.59619
816.905	78.26018
817.083	125.07796
817.261	88.79352
817.438	181.29223
817.616	148.00059
817.793	74.61495
817.971	100.03792
818.148	109.77696
818.326	123.45543
818.503	98.92761
818.681	130.50245
818.858	65.0572
819.036	92.2418
819.213	98.53894
819.391	65.15063
819.568	59.20716
819.745	47.98783
819.923	90.91967
820.1	53.3644
820.277	50.69912
820.455	60.266
820.632	65.82346
820.809	69.85765
820.986	38.25057
821.164	30.89669
821.341	26.74597
821.518	39.80537
821.695	29.57983
821.872	26.64085
822.05	22.19258
822.227	18.19455
822.404	19.80954
822.581	21.23197
822.758	19.83573
822.935	19.7979
823.112	23.2265
823.289	19.70763
823.466	24.10729
823.643	23.40458
823.82	28.09872
823.997	26.84634
824.174	31.29763
824.351	41.40036
824.528	41.2727
824.705	36.71229
824.882	41.05868
825.059	55.19278
825.236	36.11088
825.412	39.88662
825.589	50.06502
825.766	68.80606
825.943	41.68314
826.12	49.22277
826.296	34.61232
826.473	41.63781
826.65	40.4629
826.827	48.35649
827.003	32.01744
827.18	35.91192
827.357	39.30514
827.533	34.30604
827.71	19.18539
827.887	31.63347
828.063	38.02986
828.24	31.18119
828.416	43.46862
828.593	36.06812
828.769	53.89545
828.946	59.59254
829.122	61.44137
829.299	67.37006
829.475	31.66316
829.652	63.10138
829.828	100.28832
830.005	64.52897
830.181	91.15688
830.357	62.5507
830.534	86.26119
830.71	70.4344
830.886	101.38779
831.063	86.72272
831.239	127.74915
831.415	52.1128
831.592	113.12928
831.768	74.02258
831.944	51.35319
832.12	113.63927
832.296	116.61843
832.473	88.96078
832.649	59.48322
832.825	84.19743
833.001	46.97849
833.177	71.44899
833.353	58.53082
833.529	33.80371
833.705	49.23431
833.881	33.39937
834.058	34.78734
834.234	36.26189
834.41	37.77039
834.586	30.50914
834.761	34.80158
834.937	41.04072
835.113	43.70516
835.289	38.87484
835.465	48.68838
835.641	44.88451
835.817	51.77515
835.993	91.07298
836.169	45.5918
836.344	71.61581
836.52	83.07436
836.696	94.41605
836.872	58.30513
837.048	189.44873
837.223	65.58696
837.399	172.42457
837.575	134.61469
837.75	114.14396
837.926	162.60655
838.102	257.1392
838.277	190.08257
838.453	278.19299
838.628	266.60652
838.804	90.64709
838.98	247.51688
839.155	127.65135
839.331	157.12551
839.506	113.01603
839.682	107.63811
839.857	148.65868
840.033	150.58518
840.208	69.48067
840.384	39.86365
840.559	70.36259
840.734	122.64929
840.91	156.32893
841.085	109.45622
841.26	109.25629
841.436	121.69514
841.611	84.12976
841.786	143.76666
841.962	220.41975
842.137	134.1406
842.312	69.01546
842.487	117.02514
842.663	130.52308
842.838	114.30236
843.013	516.80004
843.188	293.61232
843.363	176.59712
843.538	488.54067
843.714	486.56897
843.889	436.07577
844.064	503.19287
844.239	263.70305
844.414	558.13347
844.589	286.809
844.764	713.5717
844.939	487.96681
845.114	408.4988
845.289	679.69815
845.464	787.12857
845.639	719.96414
845.814	241.20501
845.989	460.46747
846.163	439.6747
846.338	778.31443
846.513	652.34877
846.688	374.90361
846.863	758.3213
847.038	397.37861
847.212	351.56436
847.387	724.48762
847.562	406.55916
847.737	597.81786
847.911	269.76926
848.086	246.57074
848.261	391.18517
848.435	334.67497
848.61	540.89928
848.785	235.74301
848.959	508.81444
849.134	667.29708
849.308	1085.35135
849.483	669.63471
849.658	705.93388
849.832	368.13647
850.007	266.40929
850.181	1068.87164
850.356	685.09203
850.53	954.91939
850.705	373.13396
850.879	225.19201
851.053	474.44975
851.228	405.99791
851.402	770.74547
851.577	650.5787
851.751	867.91674
851.925	419.62951
852.099	191.39469
852.274	304.49044
852.448	407.61258
852.622	985.71282
852.797	394.66412
852.971	447.26459
853.145	907.42242
853.319	974.90548
853.493	1153.74326
853.668	495.34072
853.842	1525.1789
854.016	1144.70572
854.19	1580.68594
854.364	620.77322
854.538	607.31466
854.712	712.26258
854.886	411.87188
855.06	389.84654
855.234	176.74585
855.408	827.6017
855.582	590.55823
855.756	873.30033
855.93	573.97125
856.104	671.44753
856.278	813.47391
856.452	402.35758
856.626	625.60331
856.8	1104.95792
856.973	1175.6373
857.147	1116.02345
857.321	1498.73887
857.495	550.30272
857.669	819.94564
857.842	666.72157
858.016	484.60765
858.19	366.93825
858.364	1267.0423
858.537	563.46082
858.711	1104.94085
858.885	926.3611
859.058	291.9702
859.232	314.38452
859.405	438.77187
859.579	763.59698
859.753	698.09193
859.926	812.70118
860.1	453.13818
860.273	1050.92627
860.447	871.82024
860.62	591.11391
860.794	853.07098
860.967	608.13726
861.141	527.89618
861.314	752.323
861.487	687.77009
861.661	512.41763
861.834	835.26732
862.008	1092.47567
862.181	841.44477
862.354	1375.80322
862.528	651.66392
862.701	416.64411
862.874	420.49777
863.047	441.95464
863.221	566.14417
863.394	361.54537
863.567	469.86358
863.74	149.82891
863.913	1054.05047
864.087	626.02823
864.26	647.06224
864.433	785.59934
864.606	1000.5181
864.779	1560.59816
864.952	274.77413
865.125	981.30682
865.298	594.70818
865.471	592.20093
865.644	955.26085
865.817	577.68408
865.99	984.01458
866.163	879.55881
866.336	434.8245
866.509	428.88837
866.682	642.20416
866.855	1305.22514
867.028	215.48148
867.2	626.9327
867.373	102.60209
867.546	435.81325
867.719	1223.8083
867.892	647.44076
868.064	418.32582
868.237	456.60528
868.41	501.88263
868.583	224.89365
868.755	281.40256
868.928	672.25506
869.101	933.43206
869.273	1752.64335
869.446	483.87251
869.619	934.51558
869.791	470.06046
869.964	763.3676
870.136	1017.59086
870.309	417.80289
870.481	366.05957
870.654	375.2755
870.826	455.93175
870.999	340.7372
871.171	527.63465
871.344	308.49015
871.516	392.09516
871.689	395.23887
871.861	550.69548
872.033	377.62013
872.206	334.11615
872.378	489.94538
872.55	470.92405
872.723	362.87217
872.895	659.08369
873.067	531.62234
873.24	481.10084
873.412	438.52416
873.584	371.90276
873.756	646.30461
873.928	837.85651
874.101	367.95826
874.273	523.26258
874.445	170.67288
874.617	308.34085
874.789	346.76692
874.961	361.52024
875.133	451.34908
875.305	501.03858
875.477	385.86766
875.649	226.24817
875.821	299.2798
875.993	705.5318
876.165	365.69037
876.337	495.90117
876.509	531.01133
876.681	454.08596
876.853	462.46342
877.025	721.13688
877.197	243.41344
877.369	275.01272
877.541	401.77162
877.712	77.09187
877.884	191.55891
878.056	503.35475
878.228	214.94473
878.4	481.1969
878.571	215.03111
878.743	151.36683
878.915	309.88142
879.086	152.85203
879.258	189.99303
879.43	175.649
879.601	154.17237
879.773	143.40289
879.945	30.96408
880.116	50.97769
880.288	31.68202
880.459	34.26809
880.631	26.54894
880.802	31.12711
880.974	29.60305
881.145	19.45179
881.317	28.05163
881.488	20.46527
881.66	24.70171
881.831	21.99556
882.002	30.94749
882.174	23.19428
882.345	29.649
882.517	17.05578
882.688	40.03918
882.859	30.2692
883.03	53.54672
883.202	51.49023
883.373	44.20098
883.544	45.61721
883.715	79.09893
883.887	73.91569
884.058	63.93487
884.229	83.30692
884.4	88.06035
884.571	110.15708
884.742	84.62664
884.914	91.75907
885.085	145.07211
885.256	179.79458
885.427	165.48809
885.598	174.96264
885.769	193.25597
885.94	196.81303
886.111	119.15102
886.282	193.05401
886.453	205.71228
886.624	157.59504
886.795	237.77759
886.966	212.94009
887.136	256.50858
887.307	185.34767
887.478	405.841
887.649	354.02103
887.82	341.73287
887.991	233.2955
888.161	420.25716
888.332	383.35139
888.503	225.93034
888.674	445.80469
888.844	722.86572
889.015	670.76184
889.186	322.43534
889.356	632.86977
889.527	333.82134
889.698	1019.24987
889.868	282.51045
890.039	579.802
890.209	362.77937
890.38	611.26588
890.551	487.88658
890.721	800.13862
890.892	549.90095
891.062	1185.04427
891.233	525.96314
891.403	735.68279
891.574	525.80397
891.744	372.34819
891.914	335.7559
892.085	512.31752
892.255	126.67644
892.425	543.76851
892.596	395.78666
892.766	477.95564
892.936	764.85489
893.107	445.88866
893.277	237.17646
893.447	178.8236
893.618	122.35611
893.788	232.73136
893.958	121.00397
894.128	93.5717
894.298	119.37056
894.468	152.80033
894.639	69.20599
894.809	44.60254
894.979	70.12375
895.149	89.40728
895.319	72.775
895.489	100.42821
895.659	148.13659
895.829	80.92358
895.999	96.11424
896.169	82.32166
896.339	119.76617
896.509	238.32259
896.679	230.65643
896.849	275.32936
897.019	328.31071
897.189	337.55217
897.358	264.75717
897.528	526.5186
897.698	229.6313
897.868	345.75601
898.038	863.3277
898.208	930.09381
898.377	256.25701
898.547	1922.5336
898.717	3382.35998
898.886	888.69516
899.056	787.09453
899.226	2084.25989
899.395	2166.07832
899.565	2426.40427
899.735	4512.9339
899.904	1668.63534
900.074	5846.91695
900.244	713.12692
900.413	3346.90146
900.583	743.31707
900.752	-2031.20652
900.922	1059.44295
901.091	241.79257
901.261	2211.77117
901.43	1208.31695
901.599	3053.8267
901.769	2797.41932
901.938	2793.56688
902.108	935.23731
902.277	1474.50751
902.446	461.89653
902.616	759.86497
902.785	559.08985
902.954	819.74159
903.124	465.97995
903.293	386.16547
903.462	139.61128
903.631	214.98763
903.801	153.15657
903.97	61.97427
904.139	115.19212
904.308	88.02279
904.477	75.78614
904.646	44.57512
904.816	69.41373
904.985	102.52095
905.154	168.44338
