Data from WindowProjectSample3_Transmission__12__00012.txt Node

Date: Sun May 04 09:52:53 EDT 2025
User: jessi
Spectrometer: SR400872
Trigger mode: 0
Integration Time (sec): 5.000070E-1
Scans to average: 10
Electric dark correction enabled: true
Nonlinearity correction enabled: true
Boxcar width: 0
XAxis mode: Wavelengths
Number of Pixels in Spectrum: 3648
>>>>>Begin Spectral Data<<<<<
184.909	-5644.78067
185.132	11379.12258
185.355	-8383.94366
185.578	-54036.10233
185.801	4681.93915
186.024	-132157.817
186.247	-761.37028
186.47	1369.06574
186.693	992.31899
186.916	-616.50277
187.139	-2540923.53144
187.362	-2941.69766
187.585	8814.82067
187.808	1845.70296
188.031	6.69384
188.254	4675.29429
188.476	-1751.39412
188.699	2486.45076
188.922	460.02248
189.145	-5979.82259
189.368	-3219.90925
189.591	1687.85503
189.813	-137156.71973
190.036	8951.33495
190.259	1448.39521
190.482	5513.8221
190.705	16826.39037
190.927	17458.1204
191.15	-4061.50076
191.373	2037.34749
191.595	1568.80012
191.818	17263.2677
192.041	853.61104
192.263	-7737.54847
192.486	-1726.38392
192.709	2840.75141
192.931	-3462.24128
193.154	13610.13982
193.377	2541.69654
193.599	28275.01761
193.822	2123.62146
194.044	2060.9918
194.267	995.71195
194.489	-7.72164
194.712	3766.64705
194.934	33387.31997
195.157	-551.85893
195.379	11038.16355
195.602	1859.62015
195.824	4818.24113
196.047	6183.58252
196.269	13390.42848
196.492	-11494.82105
196.714	3730.16147
196.936	6916.48848
197.159	10640.15938
197.381	4403.32009
197.604	1959577.76865
197.826	2032.92187
198.048	1966.56396
198.271	9753.20461
198.493	2054.16647
198.715	2804.29422
198.938	8194.87509
199.16	3571.31821
199.382	10031.31049
199.604	10031.51398
199.827	1863.31636
200.049	3195.91082
200.271	20875.66465
200.493	1798.01692
200.715	7405.89395
200.938	7914.18376
201.16	-3706.87823
201.382	33891.56717
201.604	3927.66839
201.826	8311.19764
202.048	4695.02088
202.27	1964.35857
202.492	5886.33041
202.715	19487.93569
202.937	3917.50785
203.159	1546.36958
203.381	2072.43493
203.603	2712.86134
203.825	-1353.09574
204.047	-22149.20945
204.269	3454.54122
204.491	7708.73425
204.713	-1699024.58067
204.935	2318.65467
205.156	3922.84683
205.378	1677.86795
205.6	36464.57126
205.822	4768.3647
206.044	3179.08806
206.266	6386.2817
206.488	1401.32136
206.71	9578.29846
206.932	1344.1704
207.153	29587.55505
207.375	16870.38752
207.597	12532.44488
207.819	38260.81504
208.041	-46191.97675
208.262	1227.62042
208.484	13698.79284
208.706	3676.00971
208.927	2483.6362
209.149	899.71446
209.371	3727.13526
209.593	941.12938
209.814	9336.99425
210.036	-444867.40812
210.258	1578.25136
210.479	2250.92423
210.701	3264.94977
210.922	-5501.84048
211.144	-3284.33579
211.366	5041.99041
211.587	2489.34511
211.809	5874.87183
212.03	-65361.01118
212.252	447.46246
212.473	805.50201
212.695	787.23767
212.916	1257.93249
213.138	555.5563
213.359	4915.32382
213.581	2700.92245
213.802	878.22112
214.024	7102.67658
214.245	-14166.33442
214.466	396.55227
214.688	3719.36627
214.909	9854.78715
215.131	4167.34714
215.352	2712.09279
215.573	12296.70508
215.795	2222.71836
216.016	2022.99612
216.237	-719299.18522
216.459	1870.6809
216.68	5712.08885
216.901	3132.03739
217.122	794.75364
217.344	3077.9493
217.565	7091.02641
217.786	3469.9841
218.007	894.71395
218.228	2112.44149
218.45	-16341.92345
218.671	42312.54168
218.892	20441.39635
219.113	1645.5571
219.334	8716.1651
219.555	-8452.82839
219.776	1791.46562
219.997	4091.74509
220.219	1102.10745
220.44	1512.03794
220.661	1688.12357
220.882	5641.18349
221.103	1543.52438
221.324	7533.51391
221.545	3145.29846
221.766	3040.6299
221.987	1574.3435
222.208	885.55747
222.429	2185.27122
222.65	230.78189
222.87	836.51009
223.091	1730.45513
223.312	1107.92024
223.533	2034.54289
223.754	1583.6
223.975	1714.1179
224.196	971.02574
224.417	5369.78563
224.637	629.48536
224.858	88.18605
225.079	1112.34253
225.3	609.00307
225.521	2317.0615
225.741	641.4774
225.962	617.06703
226.183	142.97889
226.404	984.76683
226.624	574.76028
226.845	613.61013
227.066	469.35596
227.286	319.18445
227.507	179.42213
227.728	162.25477
227.948	275.84049
228.169	94.29817
228.389	103.18971
228.61	58.1837
228.831	85.11172
229.051	9.5421
229.272	49.15871
229.492	72.13707
229.713	21.89811
229.933	53.65637
230.154	44.00396
230.374	78.25833
230.595	60.6147
230.815	31.77276
231.036	58.2667
231.256	-9.98738
231.477	98.60666
231.697	55.81329
231.917	63.16423
232.138	82.18681
232.358	158.4008
232.579	154.36348
232.799	21.95687
233.019	132.30306
233.24	159.03523
233.46	54.95505
233.68	96.91417
233.901	63.33393
234.121	38.9249
234.341	16.65476
234.561	0.1829
234.782	32.4931
235.002	99.78666
235.222	-1.42002
235.442	91.9419
235.662	44.15719
235.883	90.59334
236.103	75.1372
236.323	52.83045
236.543	41.92048
236.763	58.4963
236.983	59.49602
237.203	61.84386
237.423	87.50311
237.643	125.66107
237.864	110.1322
238.084	28.15382
238.304	37.51978
238.524	63.49641
238.744	56.44718
238.964	101.65303
239.184	88.5415
239.404	91.04705
239.624	51.2077
239.843	83.87491
240.063	48.98417
240.283	32.11743
240.503	38.01853
240.723	35.71313
240.943	19.92603
241.163	29.23167
241.383	19.89037
241.603	10.21178
241.822	13.4388
242.042	9.40448
242.262	11.70137
242.482	13.1959
242.702	15.3932
242.921	4.79935
243.141	10.98263
243.361	9.93037
243.581	13.69226
243.8	11.95541
244.02	7.43111
244.24	14.54932
244.459	15.12067
244.679	27.10192
244.899	18.55604
245.118	20.97161
245.338	17.99152
245.558	20.40346
245.777	12.07223
245.997	13.85791
246.216	15.05148
246.436	8.62025
246.655	5.75572
246.875	4.0157
247.094	8.58346
247.314	3.12662
247.533	5.27941
247.753	6.39323
247.972	5.4626
248.192	1.95864
248.411	3.10025
248.631	5.7708
248.85	7.27668
249.07	5.97421
249.289	9.78862
249.508	6.97555
249.728	11.22089
249.947	11.47746
250.166	13.27034
250.386	7.08328
250.605	10.30566
250.824	17.71132
251.044	11.92107
251.263	35.5902
251.482	19.86041
251.701	17.11165
251.921	-0.29552
252.14	5.45598
252.359	6.67373
252.578	14.81998
252.798	5.64349
253.017	14.28246
253.236	6.70252
253.455	9.82142
253.674	17.90831
253.893	8.46974
254.112	12.66906
254.331	18.62914
254.551	15.675
254.77	5.98777
254.989	21.20856
255.208	17.01555
255.427	22.95333
255.646	19.79722
255.865	31.26373
256.084	12.68349
256.303	15.7016
256.522	20.49319
256.741	4.49489
256.96	4.75019
257.179	12.00946
257.397	16.24556
257.616	8.17508
257.835	9.67223
258.054	22.37381
258.273	14.79876
258.492	15.52825
258.711	9.08783
258.93	4.37049
259.148	6.11874
259.367	6.43802
259.586	8.09538
259.805	3.4301
260.023	7.24066
260.242	5.41101
260.461	3.99632
260.68	2.50539
260.898	6.24104
261.117	2.2169
261.336	1.47187
261.554	5.63258
261.773	5.94622
261.992	1.36771
262.21	5.48619
262.429	6.67092
262.648	10.58307
262.866	12.1015
263.085	8.34352
263.303	7.69027
263.522	13.00161
263.74	13.40794
263.959	22.67027
264.178	12.10821
264.396	10.02104
264.615	7.23906
264.833	17.03031
265.051	14.84186
265.27	15.14951
265.488	16.40297
265.707	9.70186
265.925	15.38744
266.144	7.27499
266.362	8.64486
266.58	8.68314
266.799	7.11865
267.017	8.66413
267.235	7.6851
267.454	5.4039
267.672	2.88325
267.89	7.0135
268.109	7.21579
268.327	6.20158
268.545	1.41484
268.763	6.01287
268.982	2.75539
269.2	7.15961
269.418	4.56593
269.636	3.70791
269.854	6.76159
270.073	4.94247
270.291	3.15475
270.509	3.20946
270.727	6.57012
270.945	10.69632
271.163	11.1072
271.381	2.33082
271.599	4.57068
271.817	7.91149
272.036	2.3622
272.254	4.6336
272.472	3.43897
272.69	3.54481
272.908	4.03254
273.126	6.23719
273.344	7.7509
273.562	2.93177
273.779	4.1467
273.997	6.04765
274.215	6.6159
274.433	4.50195
274.651	7.18024
274.869	7.24184
275.087	4.50231
275.305	6.2885
275.523	3.99485
275.74	5.09794
275.958	8.05958
276.176	11.65603
276.394	3.78445
276.612	4.88476
276.829	5.04263
277.047	4.43673
277.265	4.8409
277.483	5.97337
277.7	6.54974
277.918	5.50625
278.136	9.59006
278.353	4.96949
278.571	3.03185
278.789	7.15983
279.006	1.79801
279.224	3.90931
279.442	7.60904
279.659	5.4841
279.877	3.66457
280.094	8.47494
280.312	1.74889
280.529	5.57203
280.747	1.84594
280.964	4.20452
281.182	8.56264
281.399	4.22172
281.617	5.70498
281.834	3.94688
282.052	3.09427
282.269	4.69519
282.487	3.68351
282.704	3.47845
282.921	3.61506
283.139	4.74835
283.356	6.3132
283.574	5.35211
283.791	3.13515
284.008	8.20661
284.226	4.58735
284.443	5.02083
284.66	6.1193
284.877	5.01397
285.095	3.28831
285.312	2.32232
285.529	1.51164
285.746	1.54694
285.964	3.21982
286.181	2.11166
286.398	3.04335
286.615	4.17514
286.832	3.98939
287.05	1.24459
287.267	2.88582
287.484	2.73642
287.701	4.31227
287.918	3.93349
288.135	4.1682
288.352	1.74895
288.569	2.29868
288.786	3.71379
289.003	2.90716
289.22	4.25593
289.437	2.48265
289.654	4.40729
289.871	4.54781
290.088	4.13582
290.305	3.44195
290.522	2.76178
290.739	3.0543
290.956	4.75867
291.173	5.43333
291.39	5.33417
291.607	3.74931
291.824	2.99277
292.04	1.71316
292.257	4.48705
292.474	4.83684
292.691	3.19568
292.908	1.54002
293.125	2.44243
293.341	1.72622
293.558	7.42038
293.775	3.03059
293.992	3.29139
294.208	1.26536
294.425	2.07815
294.642	2.91208
294.858	4.56947
295.075	1.21806
295.292	3.12555
295.508	3.58742
295.725	5.47674
295.942	2.60846
296.158	1.67907
296.375	3.14942
296.591	2.31082
296.808	2.41476
297.024	2.80869
297.241	3.23439
297.458	3.43246
297.674	0.30098
297.891	2.69907
298.107	2.22112
298.323	1.69216
298.54	4.13284
298.756	2.13173
298.973	0.94403
299.189	4.45062
299.406	1.81304
299.622	4.47503
299.838	4.16696
300.055	3.91998
300.271	1.02567
300.487	1.53581
300.704	1.79947
300.92	0.90677
301.136	5.64804
301.353	4.35516
301.569	3.05454
301.785	3.41777
302.001	4.11391
302.218	3.58391
302.434	3.48315
302.65	1.01976
302.866	2.31699
303.083	5.6147
303.299	5.55834
303.515	2.84357
303.731	2.97107
303.947	1.02573
304.163	1.90387
304.379	3.18047
304.595	3.69679
304.812	1.96528
305.028	1.93497
305.244	2.35764
305.46	3.99308
305.676	4.12195
305.892	4.8688
306.108	3.23526
306.324	2.42697
306.54	5.62262
306.756	3.80097
306.972	3.70119
307.187	2.35702
307.403	5.0376
307.619	2.25212
307.835	4.57729
308.051	4.85746
308.267	1.31867
308.483	4.27906
308.699	3.65026
308.914	3.12036
309.13	2.9094
309.346	0.80201
309.562	1.3746
309.778	1.0411
309.993	3.56061
310.209	2.48098
310.425	1.39737
310.641	2.43309
310.856	1.32315
311.072	1.42418
311.288	2.71945
311.503	2.91856
311.719	0.77625
311.935	0.50409
312.15	3.20472
312.366	2.74302
312.581	3.44468
312.797	2.76716
313.013	3.84812
313.228	2.11321
313.444	2.99402
313.659	1.93337
313.875	3.58519
314.09	2.84906
314.306	4.57478
314.521	3.96945
314.737	3.5545
314.952	3.40926
315.168	2.84762
315.383	3.49515
315.599	2.65908
315.814	2.5008
316.029	3.88354
316.245	1.08624
316.46	1.02253
316.675	4.98331
316.891	5.65227
317.106	6.94053
317.321	3.64657
317.537	3.6615
317.752	3.7407
317.967	4.00762
318.183	2.05161
318.398	2.82844
318.613	4.26601
318.828	4.83196
319.043	4.27643
319.259	2.45254
319.474	3.45422
319.689	4.42294
319.904	0.52051
320.119	4.0444
320.334	3.4713
320.549	2.74488
320.765	4.63804
320.98	3.13565
321.195	4.09738
321.41	2.87911
321.625	4.25092
321.84	5.68242
322.055	5.63221
322.27	2.04535
322.485	1.96646
322.7	3.37817
322.915	4.58635
323.13	1.87225
323.345	5.04307
323.56	3.96831
323.775	3.97816
323.989	3.65356
324.204	3.49074
324.419	4.24648
324.634	1.37666
324.849	2.86627
325.064	6.03184
325.279	4.13812
325.493	3.91087
325.708	4.4071
325.923	2.12783
326.138	2.06592
326.352	5.16926
326.567	4.40731
326.782	2.43903
326.997	1.96253
327.211	4.09908
327.426	3.68776
327.641	2.50948
327.855	0.9699
328.07	3.65542
328.285	5.37707
328.499	2.63353
328.714	3.81381
328.928	4.12946
329.143	3.06897
329.358	4.42692
329.572	4.8434
329.787	4.81106
330.001	6.49688
330.216	1.42723
330.43	5.27961
330.645	5.44004
330.859	4.29479
331.074	2.05868
331.288	3.55713
331.503	4.7941
331.717	1.75404
331.931	2.92705
332.146	3.229
332.36	5.78529
332.575	4.01936
332.789	3.474
333.003	3.05645
333.218	3.60276
333.432	2.23665
333.646	4.08057
333.86	4.99126
334.075	5.12967
334.289	2.31918
334.503	2.03101
334.717	3.69653
334.932	3.73202
335.146	4.92877
335.36	2.88297
335.574	4.27474
335.788	4.31929
336.003	5.13272
336.217	4.33276
336.431	4.16562
336.645	2.40891
336.859	1.65279
337.073	2.72741
337.287	3.25466
337.501	1.81378
337.715	3.17998
337.929	3.82049
338.143	1.60735
338.357	2.87337
338.571	1.7692
338.785	3.53108
338.999	2.55169
339.213	2.39246
339.427	1.47516
339.641	4.80373
339.855	2.73955
340.069	2.46628
340.283	4.71309
340.497	5.58201
340.711	3.60747
340.924	2.58247
341.138	1.62738
341.352	1.07838
341.566	3.24885
341.78	1.00365
341.993	2.29797
342.207	1.65415
342.421	3.36008
342.635	2.8053
342.848	2.2603
343.062	0.45332
343.276	2.36282
343.49	5.78289
343.703	2.18985
343.917	3.9165
344.131	3.83227
344.344	2.01617
344.558	2.30724
344.771	1.83912
344.985	4.61321
345.199	4.9224
345.412	3.36166
345.626	3.30634
345.839	0.91609
346.053	1.45061
346.266	1.6898
346.48	3.9725
346.693	3.23774
346.907	3.68264
347.12	1.87493
347.334	3.28174
347.547	3.26298
347.76	2.54661
347.974	4.35671
348.187	3.28375
348.401	2.32308
348.614	2.08421
348.827	2.48854
349.041	3.67464
349.254	0.88747
349.467	2.72023
349.681	1.37401
349.894	2.21879
350.107	4.25542
350.32	4.76187
350.534	0.91754
350.747	2.48303
350.96	1.82826
351.173	2.00376
351.386	2.27161
351.6	2.48796
351.813	1.92705
352.026	2.95083
352.239	1.12781
352.452	2.47543
352.665	3.70945
352.878	2.46019
353.092	5.26527
353.305	3.51228
353.518	2.82109
353.731	1.74533
353.944	3.91143
354.157	1.99976
354.37	1.63461
354.583	1.38253
354.796	0.84453
355.009	4.19094
355.222	2.69708
355.435	2.78414
355.647	3.78246
355.86	1.51996
356.073	2.59921
356.286	1.98053
356.499	3.44176
356.712	2.91059
356.925	3.15855
357.138	3.56622
357.35	1.54269
357.563	2.0842
357.776	2.71895
357.989	2.11565
358.201	3.12475
358.414	2.68408
358.627	3.8481
358.84	2.27296
359.052	1.26877
359.265	1.29149
359.478	3.7308
359.69	-0.36495
359.903	3.15489
360.116	3.33335
360.328	0.59158
360.541	3.21514
360.753	1.28933
360.966	1.63398
361.179	1.76571
361.391	1.68549
361.604	1.13974
361.816	1.72982
362.029	1.42229
362.241	1.25698
362.454	1.48192
362.666	1.26912
362.879	2.33133
363.091	2.03022
363.304	1.41294
363.516	2.44518
363.728	0.87485
363.941	2.89994
364.153	1.59756
364.366	-0.08581
364.578	1.00283
364.79	2.81885
365.003	2.11931
365.215	1.87066
365.427	2.48179
365.639	3.6905
365.852	2.57647
366.064	4.46393
366.276	1.69534
366.488	2.87971
366.701	1.85732
366.913	2.03649
367.125	2.0597
367.337	1.65378
367.549	1.77575
367.762	2.34779
367.974	2.42027
368.186	1.40625
368.398	3.45046
368.61	2.9653
368.822	3.05014
369.034	2.31821
369.246	3.04799
369.458	4.96817
369.67	1.34464
369.882	4.41037
370.094	0.14999
370.306	4.12246
370.518	1.78273
370.73	1.61856
370.942	1.31838
371.154	1.84834
371.366	1.50921
371.578	2.49232
371.79	1.17145
372.002	3.54581
372.214	4.03993
372.425	2.70135
372.637	3.67807
372.849	2.63232
373.061	0.14326
373.273	2.61693
373.484	2.69279
373.696	3.10113
373.908	-0.13072
374.12	3.35748
374.331	2.62722
374.543	1.46932
374.755	1.03019
374.967	2.34189
375.178	3.06831
375.39	1.89505
375.602	2.33053
375.813	0.8597
376.025	0.95324
376.236	2.07414
376.448	2.35025
376.66	1.47311
376.871	1.56501
377.083	3.26379
377.294	3.16781
377.506	1.51513
377.717	3.50365
377.929	2.34489
378.14	1.06876
378.352	2.81203
378.563	2.29787
378.775	3.3473
378.986	1.44832
379.197	2.35699
379.409	1.42931
379.62	3.1101
379.832	2.41509
380.043	1.60868
380.254	2.23978
380.466	0.79593
380.677	5.01614
380.888	4.71709
381.1	4.88053
381.311	4.6639
381.522	2.00558
381.733	5.26609
381.945	1.67849
382.156	2.47468
382.367	1.72736
382.578	5.10223
382.789	5.13055
383.001	1.73841
383.212	3.38729
383.423	3.59172
383.634	3.52178
383.845	2.51993
384.056	1.65507
384.267	2.00841
384.478	1.83066
384.69	0.88305
384.901	2.69468
385.112	2.23384
385.323	3.67984
385.534	2.57449
385.745	2.28472
385.956	2.55269
386.167	0.96141
386.378	2.49196
386.588	0.76022
386.799	1.3515
387.01	0.23813
387.221	2.81529
387.432	1.75698
387.643	4.1283
387.854	1.78164
388.065	1.71161
388.275	1.8191
388.486	1.80136
388.697	2.02538
388.908	1.89892
389.119	3.30498
389.329	3.86807
389.54	2.26758
389.751	2.44091
389.962	3.22005
390.172	2.3762
390.383	1.57897
390.594	1.2442
390.804	1.25674
391.015	1.38569
391.226	2.07518
391.436	2.46904
391.647	2.35675
391.858	2.73038
392.068	0.3532
392.279	0.78332
392.489	1.98247
392.7	3.02954
392.91	0.70397
393.121	1.22912
393.331	2.49448
393.542	3.11925
393.752	2.48932
393.963	2.06089
394.173	1.86312
394.384	2.53008
394.594	1.79561
394.804	0.66676
395.015	2.28707
395.225	2.49599
395.436	0.77572
395.646	2.5511
395.856	1.11485
396.067	0.52279
396.277	3.05369
396.487	2.38627
396.697	1.9852
396.908	2.79151
397.118	2.6319
397.328	2.20691
397.538	2.92581
397.749	1.17623
397.959	2.88652
398.169	2.83064
398.379	0.67846
398.589	2.89316
398.8	2.13434
399.01	1.67489
399.22	1.82131
399.43	4.23283
399.64	1.56179
399.85	2.60906
400.06	1.74913
400.27	1.39688
400.48	2.0587
400.69	3.59947
400.9	1.52977
401.11	1.15865
401.32	3.05671
401.53	1.3822
401.74	3.78586
401.95	2.87104
402.16	1.1098
402.37	2.27636
402.58	1.39996
402.79	2.63715
403	2.90203
403.209	1.39916
403.419	2.67805
403.629	1.33429
403.839	2.54678
404.049	2.79843
404.258	1.1687
404.468	0.99266
404.678	2.40254
404.888	2.54871
405.097	0.95246
405.307	1.88096
405.517	2.38765
405.727	2.15507
405.936	1.60813
406.146	2.20255
406.356	3.18197
406.565	1.86988
406.775	1.33884
406.984	1.43244
407.194	3.60156
407.404	1.98332
407.613	2.28725
407.823	2.80182
408.032	3.23878
408.242	3.23421
408.451	1.58903
408.661	1.87993
408.87	3.79722
409.08	1.46836
409.289	2.50422
409.499	2.06681
409.708	2.13208
409.918	0.0453
410.127	1.96137
410.336	3.46815
410.546	2.64669
410.755	1.53697
410.964	1.64176
411.174	1.32064
411.383	2.43561
411.592	2.49921
411.802	1.02728
412.011	3.07295
412.22	2.19768
412.429	3.61673
412.639	3.46483
412.848	3.46783
413.057	3.68942
413.266	3.38348
413.475	1.95815
413.685	2.83464
413.894	2.91009
414.103	3.2365
414.312	2.71388
414.521	2.07792
414.73	2.19291
414.939	4.10741
415.148	2.58866
415.357	2.36306
415.566	1.55122
415.776	1.69367
415.985	1.47051
416.194	2.81493
416.403	3.44081
416.611	0.73822
416.82	1.21141
417.029	1.97765
417.238	1.16621
417.447	0.93822
417.656	1.25159
417.865	0.98031
418.074	1.26207
418.283	1.46657
418.492	2.15447
418.7	2.04281
418.909	2.66252
419.118	1.55534
419.327	1.7428
419.536	1.5699
419.744	0.91555
419.953	2.06718
420.162	2.02692
420.371	0.77763
420.579	0.6903
420.788	1.82298
420.997	1.76752
421.205	1.80745
421.414	1.46758
421.623	1.34738
421.831	0.89313
422.04	1.84474
422.249	0.88209
422.457	1.64311
422.666	0.94803
422.874	2.11864
423.083	2.02482
423.291	1.90057
423.5	1.47794
423.708	1.68386
423.917	2.08936
424.125	1.57538
424.334	1.13582
424.542	3.25765
424.751	2.30864
424.959	2.15676
425.167	2.52141
425.376	2.31866
425.584	1.62943
425.793	2.00308
426.001	1.07919
426.209	2.45502
426.418	1.24586
426.626	1.55595
426.834	1.20793
427.042	2.01183
427.251	1.38466
427.459	2.61352
427.667	2.27926
427.875	1.05902
428.084	1.61368
428.292	3.12503
428.5	2.44056
428.708	1.38161
428.916	1.30905
429.124	2.17116
429.333	1.83425
429.541	1.65936
429.749	2.03904
429.957	2.08009
430.165	3.93551
430.373	1.02733
430.581	2.22919
430.789	3.19075
430.997	1.40203
431.205	1.49042
431.413	2.03926
431.621	1.72292
431.829	2.43978
432.037	1.505
432.245	2.51244
432.453	2.04417
432.661	1.61077
432.869	3.48422
433.076	0.99596
433.284	1.64879
433.492	2.25815
433.7	2.87108
433.908	1.42134
434.116	2.00616
434.323	1.97462
434.531	1.94701
434.739	2.32469
434.947	2.82296
435.154	2.51039
435.362	2.16266
435.57	1.87522
435.778	1.70047
435.985	2.45789
436.193	1.59857
436.401	2.99298
436.608	2.15728
436.816	1.73678
437.023	3.52907
437.231	3.43592
437.439	2.16222
437.646	2.4031
437.854	2.48729
438.061	2.68383
438.269	1.89412
438.476	2.54752
438.684	2.16849
438.891	1.59423
439.099	1.34355
439.306	0.77816
439.514	1.15797
439.721	2.10654
439.929	1.32319
440.136	2.1385
440.343	2.02457
440.551	1.57952
440.758	3.32315
440.965	2.30524
441.173	1.90367
441.38	1.44631
441.587	2.20477
441.795	1.53714
442.002	2.1947
442.209	2.29457
442.416	2.6646
442.624	2.56357
442.831	2.52186
443.038	1.64033
443.245	1.38308
443.452	1.66988
443.66	2.85918
443.867	1.48239
444.074	1.67635
444.281	1.43897
444.488	1.76313
444.695	1.87215
444.902	1.57412
445.109	2.2534
445.316	1.61391
445.523	1.36971
445.73	1.07813
445.937	1.7385
446.144	2.16312
446.351	1.92806
446.558	1.12333
446.765	2.40205
446.972	2.59722
447.179	1.6117
447.386	2.81859
447.593	1.51036
447.8	2.74563
448.007	1.687
448.214	2.07178
448.42	1.47025
448.627	2.95783
448.834	1.98874
449.041	1.99712
449.248	1.92815
449.454	2.95458
449.661	3.72284
449.868	2.04407
450.075	1.7234
450.281	0.65814
450.488	1.3648
450.695	1.66057
450.901	1.62427
451.108	1.87572
451.315	2.96638
451.521	2.10076
451.728	2.97052
451.935	1.69775
452.141	1.99619
452.348	2.29226
452.554	1.94711
452.761	1.794
452.967	3.48988
453.174	2.24681
453.38	2.39782
453.587	1.23487
453.793	2.25458
454	3.16244
454.206	3.91834
454.413	3.34157
454.619	2.64453
454.825	1.70031
455.032	2.87496
455.238	3.16472
455.445	1.33167
455.651	2.45392
455.857	0.80096
456.064	2.19066
456.27	2.18385
456.476	2.20607
456.682	1.33734
456.889	2.6585
457.095	2.9073
457.301	4.37599
457.507	2.3683
457.714	2.44487
457.92	2.09807
458.126	1.56816
458.332	1.86519
458.538	1.47674
458.744	1.63601
458.951	1.71687
459.157	3.03277
459.363	1.88862
459.569	1.62076
459.775	2.37876
459.981	1.23526
460.187	1.7808
460.393	2.31083
460.599	2.92369
460.805	2.07382
461.011	2.21301
461.217	3.0858
461.423	3.27458
461.629	2.17133
461.835	2.99177
462.041	2.21994
462.247	3.84618
462.453	2.19044
462.658	2.61472
462.864	3.18096
463.07	2.73866
463.276	2.90105
463.482	2.79633
463.688	3.53758
463.893	2.14063
464.099	2.29474
464.305	3.89373
464.511	2.15156
464.716	2.61719
464.922	3.0582
465.128	1.92445
465.333	4.07445
465.539	3.09191
465.745	2.27811
465.95	2.77072
466.156	4.78433
466.362	3.61955
466.567	2.34007
466.773	2.13692
466.978	4.08512
467.184	1.80713
467.389	0.80344
467.595	3.07218
467.8	1.91097
468.006	3.68711
468.211	3.54715
468.417	1.74342
468.622	3.09184
468.828	3.22067
469.033	2.96555
469.239	5.20033
469.444	2.24732
469.649	3.62622
469.855	2.44533
470.06	2.86478
470.266	1.78865
470.471	3.35958
470.676	3.11035
470.881	1.40815
471.087	3.77885
471.292	4.41502
471.497	1.54029
471.703	2.44244
471.908	2.19553
472.113	2.85456
472.318	3.38411
472.523	1.88163
472.729	3.09221
472.934	3.24878
473.139	2.33481
473.344	3.43191
473.549	3.88914
473.754	1.93821
473.959	4.56255
474.164	2.16527
474.369	2.69659
474.575	3.51036
474.78	2.98469
474.985	2.44625
475.19	1.3879
475.395	2.01095
475.6	2.59865
475.804	3.70174
476.009	2.57457
476.214	2.65592
476.419	2.14983
476.624	1.29626
476.829	1.89013
477.034	3.04799
477.239	1.94547
477.444	2.73705
477.648	2.88105
477.853	3.10318
478.058	2.18628
478.263	1.90576
478.468	1.61531
478.672	1.67942
478.877	3.32319
479.082	4.03284
479.287	2.72251
479.491	2.52423
479.696	1.36705
479.901	3.20482
480.105	3.06253
480.31	1.88611
480.515	2.07188
480.719	4.11315
480.924	1.80523
481.128	1.34646
481.333	2.26417
481.538	2.33074
481.742	1.64929
481.947	2.14612
482.151	2.17305
482.356	1.81422
482.56	2.48818
482.765	2.37984
482.969	2.83903
483.174	3.30261
483.378	4.07546
483.582	3.53294
483.787	4.33713
483.991	3.98197
484.196	4.27031
484.4	4.07386
484.604	4.76226
484.809	3.72036
485.013	3.92196
485.217	3.3754
485.422	3.03514
485.626	2.81795
485.83	2.67734
486.034	2.60947
486.239	2.6187
486.443	2.57363
486.647	2.23874
486.851	2.94279
487.055	3.35953
487.26	2.46259
487.464	3.00948
487.668	2.3678
487.872	2.16832
488.076	3.02116
488.28	2.60349
488.484	2.46033
488.688	2.43024
488.892	2.85096
489.096	2.75646
489.3	2.32306
489.504	2.29604
489.708	2.68137
489.912	2.60515
490.116	2.58347
490.32	1.65988
490.524	2.44565
490.728	2.3684
490.932	2.27132
491.136	1.86971
491.34	2.96049
491.544	3.04799
491.748	2.43186
491.951	2.58391
492.155	2.33021
492.359	2.66913
492.563	2.0121
492.767	1.94276
492.97	2.15468
493.174	1.76794
493.378	2.18467
493.582	1.7306
493.785	2.35337
493.989	2.62623
494.193	2.69855
494.396	2.31557
494.6	3.09442
494.804	2.49172
495.007	2.09053
495.211	2.05465
495.414	2.38209
495.618	2.40252
495.822	3.32649
496.025	2.20802
496.229	3.01874
496.432	1.64277
496.636	2.23935
496.839	2.08046
497.043	3.61104
497.246	2.41562
497.45	2.00357
497.653	2.05687
497.856	2.55965
498.06	1.27274
498.263	2.07032
498.467	1.75929
498.67	3.21116
498.873	2.72903
499.077	2.23316
499.28	2.11558
499.483	2.74057
499.686	3.02814
499.89	2.77788
500.093	3.05228
500.296	2.15402
500.499	3.74629
500.703	2.59084
500.906	2.64565
501.109	4.14999
501.312	2.65678
501.515	2.28772
501.719	2.89607
501.922	3.91581
502.125	2.96515
502.328	2.59516
502.531	1.73341
502.734	2.67305
502.937	1.06377
503.14	2.72157
503.343	1.52696
503.546	2.20492
503.749	1.95382
503.952	3.03537
504.155	1.75205
504.358	3.14902
504.561	2.45578
504.764	1.7572
504.967	2.49568
505.17	2.66692
505.373	3.90152
505.576	2.59124
505.778	3.15424
505.981	2.03916
506.184	3.51202
506.387	1.37345
506.59	4.01122
506.793	3.42657
506.995	2.88249
507.198	1.10157
507.401	2.60903
507.604	2.92192
507.806	1.60317
508.009	1.82583
508.212	2.67304
508.414	1.95312
508.617	1.63615
508.82	2.2697
509.022	3.22504
509.225	2.47966
509.427	1.08975
509.63	3.41451
509.833	2.29869
510.035	2.24351
510.238	1.15293
510.44	3.31356
510.643	0.71156
510.845	4.20956
511.048	2.65662
511.25	2.11855
511.453	2.3044
511.655	2.69048
511.858	1.93406
512.06	3.01058
512.262	2.37253
512.465	2.89244
512.667	1.85641
512.869	1.52319
513.072	2.65914
513.274	3.23454
513.476	2.89041
513.679	3.17654
513.881	1.55973
514.083	3.88914
514.286	1.95411
514.488	2.16806
514.69	1.91442
514.892	1.40467
515.094	2.67796
515.297	2.2331
515.499	2.64448
515.701	1.8021
515.903	3.87044
516.105	3.62215
516.307	3.10176
516.509	0.81484
516.711	1.33001
516.913	2.47744
517.116	2.14195
517.318	1.81827
517.52	2.98369
517.722	2.45391
517.924	1.09195
518.126	2.22318
518.328	1.37333
518.529	2.3583
518.731	3.25566
518.933	1.51521
519.135	1.95946
519.337	2.88245
519.539	2.39168
519.741	0.89051
519.943	2.11949
520.145	2.07277
520.346	2.57963
520.548	2.0332
520.75	2.68619
520.952	2.13436
521.153	2.56727
521.355	2.75797
521.557	1.59894
521.759	2.60816
521.96	2.51612
522.162	1.83983
522.364	3.26237
522.565	1.78788
522.767	3.12614
522.969	3.47592
523.17	2.75995
523.372	2.88572
523.573	1.67316
523.775	2.23541
523.977	1.42397
524.178	3.66079
524.38	1.66974
524.581	2.61666
524.783	1.73312
524.984	2.46341
525.186	1.83272
525.387	2.42613
525.589	1.85459
525.79	1.59867
525.991	1.13638
526.193	2.06721
526.394	0.78944
526.596	1.98425
526.797	1.81297
526.998	1.4021
527.2	0.71182
527.401	2.04762
527.602	1.77705
527.803	2.87732
528.005	2.18353
528.206	2.57536
528.407	2.61275
528.608	2.17915
528.81	2.26755
529.011	1.6842
529.212	2.85056
529.413	2.28621
529.614	2.20102
529.815	2.483
530.017	2.38325
530.218	2.09574
530.419	1.58231
530.62	2.03386
530.821	2.17762
531.022	1.22038
531.223	2.23665
531.424	2.51066
531.625	2.09696
531.826	2.12068
532.027	1.93612
532.228	2.56428
532.429	1.98008
532.63	1.69093
532.831	1.87495
533.032	1.93135
533.233	2.36318
533.433	2.10846
533.634	2.30449
533.835	1.84185
534.036	1.45573
534.237	1.89953
534.438	1.56114
534.638	1.44062
534.839	1.54565
535.04	2.50871
535.241	1.80966
535.441	2.9998
535.642	2.19947
535.843	1.25578
536.043	1.29511
536.244	1.49214
536.445	1.47736
536.645	2.54065
536.846	1.82583
537.047	2.83299
537.247	1.33537
537.448	1.87861
537.648	2.14821
537.849	2.20898
538.049	2.24059
538.25	3.1029
538.451	2.52239
538.651	1.79689
538.851	2.78315
539.052	3.36616
539.252	2.93496
539.453	2.31884
539.653	2.06009
539.854	2.09829
540.054	1.70687
540.254	2.38924
540.455	2.38237
540.655	1.46574
540.855	1.92774
541.056	2.36511
541.256	1.67721
541.456	2.78777
541.657	1.6955
541.857	2.76886
542.057	1.28189
542.257	1.53732
542.458	2.3038
542.658	2.61149
542.858	1.22707
543.058	2.72749
543.258	2.35898
543.458	1.35784
543.659	1.16902
543.859	2.58817
544.059	2.53364
544.259	2.06794
544.459	2.92134
544.659	1.77633
544.859	2.67694
545.059	1.81984
545.259	2.70095
545.459	2.48089
545.659	2.86714
545.859	2.35778
546.059	2.42165
546.259	1.63853
546.459	0.97397
546.659	1.4744
546.859	2.7689
547.059	2.46498
547.258	2.75553
547.458	2.5468
547.658	1.40517
547.858	1.72087
548.058	2.94628
548.258	2.53188
548.457	2.11299
548.657	5.47605
548.857	2.62722
549.057	3.73343
549.256	3.49569
549.456	3.06945
549.656	1.19854
549.855	5.20249
550.055	3.0526
550.255	5.03203
550.454	3.62727
550.654	4.28801
550.853	4.50329
551.053	4.38049
551.253	3.71029
551.452	3.60322
551.652	1.95332
551.851	1.52392
552.051	2.55966
552.25	2.45951
552.45	1.98272
552.649	2.5044
552.849	2.06922
553.048	3.10264
553.248	3.46242
553.447	2.05719
553.646	3.97741
553.846	4.93545
554.045	4.28281
554.244	1.97158
554.444	5.18198
554.643	2.47653
554.842	4.82051
555.042	5.56725
555.241	2.87068
555.44	2.46766
555.64	3.43604
555.839	5.22245
556.038	4.1359
556.237	3.0341
556.436	3.24474
556.636	4.11278
556.835	2.73538
557.034	4.93644
557.233	3.55937
557.432	2.39353
557.631	4.58216
557.83	3.31437
558.029	3.09133
558.228	3.17726
558.427	2.39105
558.626	4.00868
558.825	2.52284
559.024	3.88159
559.223	5.63419
559.422	3.52931
559.621	4.30522
559.82	0.97757
560.019	3.61944
560.218	2.75716
560.417	0.48221
560.616	3.05264
560.815	6.99
561.014	1.91398
561.212	4.43056
561.411	3.55956
561.61	1.71619
561.809	3.14564
562.008	5.33246
562.206	3.44864
562.405	4.12309
562.604	3.46725
562.803	3.7586
563.001	3.54825
563.2	2.00742
563.399	4.39339
563.597	2.28333
563.796	3.79709
563.995	1.92276
564.193	4.02982
564.392	2.78605
564.59	6.13116
564.789	1.01936
564.988	2.76435
565.186	3.35728
565.385	2.88925
565.583	2.423
565.782	3.06526
565.98	2.64398
566.179	2.93639
566.377	1.47233
566.575	2.04879
566.774	4.00869
566.972	3.95569
567.171	5.15015
567.369	4.86783
567.567	3.21716
567.766	3.64036
567.964	1.06041
568.162	3.9786
568.361	4.75185
568.559	3.38457
568.757	3.96535
568.956	3.51912
569.154	3.33334
569.352	4.41655
569.55	3.39266
569.748	3.22824
569.947	2.35367
570.145	2.38977
570.343	2.21849
570.541	4.66611
570.739	1.72281
570.937	3.24548
571.135	3.364
571.333	5.0277
571.532	4.9273
571.73	3.25621
571.928	4.1321
572.126	3.65953
572.324	2.52851
572.522	4.58675
572.72	6.0518
572.918	3.26671
573.116	3.397
573.313	3.19717
573.511	3.02214
573.709	2.84568
573.907	3.97478
574.105	2.85193
574.303	1.23425
574.501	1.60794
574.699	3.28398
574.896	3.4279
575.094	3.88546
575.292	1.8425
575.49	4.32023
575.688	3.58413
575.885	4.94426
576.083	5.40043
576.281	3.83937
576.478	3.06769
576.676	4.29255
576.874	2.50866
577.071	3.38498
577.269	6.64247
577.467	3.60338
577.664	4.10581
577.862	4.56641
578.059	3.17055
578.257	4.80699
578.455	3.9009
578.652	4.0403
578.85	2.06003
579.047	4.29284
579.245	4.04505
579.442	4.22002
579.64	4.09294
579.837	1.71494
580.034	7.26924
580.232	3.51693
580.429	2.71757
580.627	5.08547
580.824	6.01952
581.021	4.81166
581.219	3.75396
581.416	3.14416
581.613	5.98948
581.811	6.0117
582.008	3.31045
582.205	5.2325
582.402	4.52629
582.6	6.44629
582.797	4.84483
582.994	5.41855
583.191	5.39876
583.388	4.64861
583.586	5.6681
583.783	6.16694
583.98	3.17848
584.177	4.76514
584.374	0.44559
584.571	4.5896
584.768	4.31176
584.965	4.26901
585.162	5.6648
585.359	6.85542
585.556	4.56804
585.753	5.10083
585.95	2.83784
586.147	3.28074
586.344	5.14965
586.541	4.47248
586.738	2.7573
586.935	4.34343
587.132	3.69524
587.329	6.43556
587.526	4.23484
587.722	11.5798
587.919	2.55714
588.116	5.13991
588.313	6.4647
588.51	7.70717
588.706	4.26914
588.903	5.21735
589.1	5.80565
589.297	8.37805
589.493	4.16245
589.69	5.20917
589.887	3.59351
590.083	2.69091
590.28	3.40166
590.477	5.703
590.673	5.45994
590.87	6.12945
591.067	3.93916
591.263	5.31838
591.46	5.31557
591.656	4.39782
591.853	6.544
592.049	3.50892
592.246	4.11092
592.442	6.61579
592.639	6.18381
592.835	2.94184
593.032	5.37064
593.228	2.63767
593.425	2.48158
593.621	2.44509
593.817	4.64803
594.014	3.8141
594.21	4.56412
594.406	5.94761
594.603	4.99428
594.799	3.64955
594.995	0.96892
595.192	5.80381
595.388	3.7777
595.584	3.3634
595.78	2.02942
595.977	7.17745
596.173	6.45643
596.369	3.49639
596.565	2.67339
596.761	1.85562
596.957	5.57532
597.154	2.65761
597.35	3.33473
597.546	2.80137
597.742	4.70672
597.938	4.73803
598.134	2.89703
598.33	4.54208
598.526	6.95978
598.722	5.59985
598.918	7.05111
599.114	5.81452
599.31	3.75693
599.506	5.42466
599.702	3.59344
599.898	5.63909
600.094	6.7112
600.29	6.43924
600.485	6.03586
600.681	4.61662
600.877	7.58885
601.073	5.02808
601.269	7.96134
601.465	7.02947
601.66	3.75745
601.856	2.03733
602.052	7.43905
602.248	3.95056
602.443	1.43392
602.639	2.61442
602.835	3.4296
603.03	3.03807
603.226	5.60033
603.422	2.81293
603.617	3.73759
603.813	3.21988
604.009	3.03056
604.204	5.32874
604.4	1.56022
604.595	5.11824
604.791	2.48577
604.986	4.00896
605.182	2.54958
605.377	3.24695
605.573	3.26834
605.768	4.28958
605.964	5.28362
606.159	5.64068
606.355	6.60552
606.55	4.46568
606.746	6.31488
606.941	4.84143
607.136	8.02049
607.332	9.63193
607.527	2.88948
607.722	5.52949
607.918	4.60868
608.113	3.3193
608.308	5.76617
608.503	5.26025
608.699	4.87423
608.894	4.90412
609.089	3.22933
609.284	4.54703
609.479	3.38603
609.675	4.88458
609.87	3.54403
610.065	4.98556
610.26	6.0887
610.455	5.68478
610.65	4.09151
610.845	4.91831
611.04	6.62619
611.235	4.70905
611.43	4.5846
611.625	2.89073
611.82	7.35422
612.015	3.90931
612.21	8.24025
612.405	2.87206
612.6	8.96472
612.795	8.25137
612.99	7.08683
613.185	3.54592
613.38	3.85052
613.575	6.12102
613.77	10.48582
613.965	2.6717
614.159	3.97756
614.354	8.46587
614.549	7.58376
614.744	6.78836
614.938	3.99241
615.133	3.4479
615.328	7.69238
615.523	8.18614
615.717	11.16489
615.912	4.81742
616.107	6.37404
616.301	5.23551
616.496	4.44891
616.691	9.57575
616.885	7.03313
617.08	10.61566
617.274	8.48739
617.469	10.04035
617.664	7.08334
617.858	4.7652
618.053	6.69377
618.247	5.53194
618.442	1.77127
618.636	8.69554
618.831	5.58872
619.025	5.39732
619.219	11.54454
619.414	-0.2284
619.608	5.93153
619.803	4.0052
619.997	10.17668
620.191	8.54257
620.386	7.03517
620.58	6.26603
620.774	2.83109
620.969	2.82193
621.163	6.43869
621.357	3.7175
621.551	5.63545
621.746	6.45773
621.94	6.2149
622.134	13.76726
622.328	10.77355
622.522	3.73681
622.716	8.60095
622.911	8.19882
623.105	8.08541
623.299	6.77687
623.493	12.82916
623.687	4.60884
623.881	5.90499
624.075	7.55385
624.269	8.64454
624.463	3.01698
624.657	3.17139
624.851	7.47139
625.045	8.12694
625.239	7.78457
625.433	4.47352
625.627	9.00569
625.821	4.56683
626.015	4.32109
626.209	5.56402
626.403	2.75996
626.596	6.71939
626.79	7.14679
626.984	3.37769
627.178	6.3318
627.372	6.55416
627.565	7.51159
627.759	2.46151
627.953	3.13758
628.147	6.73485
628.34	7.35862
628.534	10.20525
628.728	5.362
628.921	7.9094
629.115	7.64362
629.309	7.98097
629.502	8.26569
629.696	6.9278
629.89	6.22318
630.083	6.67395
630.277	7.70666
630.47	10.73256
630.664	6.23175
630.857	3.50292
631.051	8.36687
631.244	9.10072
631.438	8.6466
631.631	4.84526
631.825	9.09878
632.018	8.04727
632.212	11.05834
632.405	9.14784
632.598	5.27608
632.792	7.23707
632.985	1.6845
633.178	5.49059
633.372	6.34791
633.565	6.34941
633.758	9.59504
633.952	4.69141
634.145	4.49967
634.338	6.48989
634.531	6.18346
634.724	5.15523
634.918	7.01694
635.111	5.89936
635.304	5.47635
635.497	12.20956
635.69	7.52425
635.883	9.51613
636.077	4.1727
636.27	8.55497
636.463	7.38976
636.656	8.15522
636.849	5.8012
637.042	8.33374
637.235	11.67539
637.428	8.87851
637.621	7.77823
637.814	11.56558
638.007	11.4414
638.2	11.45771
638.393	12.55074
638.586	5.11098
638.778	6.52867
638.971	8.2291
639.164	11.81838
639.357	9.23498
639.55	11.22384
639.743	10.04765
639.935	9.46045
640.128	13.44291
640.321	9.73779
640.514	9.08938
640.707	14.97868
640.899	10.00707
641.092	3.69852
641.285	28.44035
641.477	2.3957
641.67	13.83837
641.863	11.72196
642.055	9.06457
642.248	8.97396
642.441	7.50964
642.633	9.74196
642.826	12.184
643.018	12.7086
643.211	13.43654
643.403	13.02732
643.596	14.73731
643.788	13.48018
643.981	7.75244
644.173	10.91233
644.366	7.91924
644.558	4.68858
644.751	11.69266
644.943	5.58515
645.135	14.16313
645.328	14.50039
645.52	11.27958
645.712	11.66778
645.905	19.18631
646.097	6.16799
646.289	10.55707
646.482	15.09434
646.674	7.39633
646.866	12.15146
647.058	10.53485
647.251	6.52626
647.443	7.0883
647.635	8.90479
647.827	6.95686
648.019	6.31057
648.211	9.64264
648.404	10.08696
648.596	13.68964
648.788	10.23355
648.98	10.64343
649.172	10.1854
649.364	10.74266
649.556	4.16101
649.748	16.1092
649.94	6.9067
650.132	11.23172
650.324	6.91369
650.516	7.64993
650.708	12.73881
650.9	5.48124
651.092	8.24937
651.284	4.93815
651.476	6.28371
651.667	10.57678
651.859	13.57443
652.051	9.08337
652.243	10.10805
652.435	7.65259
652.627	10.7113
652.818	10.8308
653.01	4.56132
653.202	6.52838
653.394	9.32095
653.585	10.92344
653.777	23.78224
653.969	13.48387
654.16	13.32608
654.352	6.90587
654.544	9.29792
654.735	13.47432
654.927	10.16731
655.118	15.17058
655.31	12.70508
655.502	12.51205
655.693	7.98178
655.885	11.71776
656.076	14.71676
656.268	10.69309
656.459	14.02401
656.651	14.12108
656.842	8.76423
657.034	7.50387
657.225	11.84588
657.416	14.09019
657.608	13.8598
657.799	9.11592
657.99	11.87996
658.182	6.89751
658.373	6.77621
658.564	11.27086
658.756	9.27092
658.947	8.45809
659.138	5.9345
659.33	7.06303
659.521	6.58908
659.712	8.30681
659.903	8.13325
660.094	7.41745
660.286	4.60961
660.477	15.35903
660.668	11.2873
660.859	9.94415
661.05	5.61931
661.241	11.93578
661.432	11.41856
661.623	9.39079
661.814	9.25313
662.006	5.26901
662.197	11.39127
662.388	14.24692
662.579	11.16425
662.77	15.70518
662.96	20.24161
663.151	13.70988
663.342	5.11253
663.533	11.80339
663.724	10.18675
663.915	16.82644
664.106	11.04358
664.297	17.30953
664.488	13.53785
664.678	9.85964
664.869	13.44152
665.06	14.99595
665.251	12.12506
665.442	12.83249
665.632	7.76037
665.823	18.78461
666.014	1.70677
666.204	13.52133
666.395	17.16784
666.586	22.86305
666.776	14.15077
666.967	18.21061
667.158	11.15657
667.348	16.56468
667.539	7.69934
667.729	14.61664
667.92	7.6202
668.111	15.09447
668.301	13.07494
668.492	9.62949
668.682	11.15671
668.873	9.88884
669.063	7.16958
669.253	11.57212
669.444	15.50065
669.634	11.24699
669.825	18.26728
670.015	15.25476
670.206	8.589
670.396	20.40848
670.586	11.39526
670.777	13.80178
670.967	4.59782
671.157	11.87644
671.347	9.90387
671.538	18.51744
671.728	13.62284
671.918	19.43575
672.108	16.47735
672.299	12.04401
672.489	13.96942
672.679	10.65193
672.869	14.4355
673.059	19.12382
673.249	14.53394
673.44	10.14224
673.63	11.59691
673.82	16.55735
674.01	9.71977
674.2	14.48038
674.39	24.84815
674.58	15.07185
674.77	13.22882
674.96	13.10909
675.15	29.71544
675.34	16.86056
675.53	12.91964
675.72	10.72406
675.91	6.91369
676.099	20.20094
676.289	21.61778
676.479	17.28237
676.669	10.93128
676.859	15.46014
677.049	9.02946
677.238	13.10179
677.428	19.7565
677.618	14.61753
677.808	18.05939
677.997	14.46349
678.187	8.32888
678.377	11.87775
678.567	10.7904
678.756	10.67724
678.946	11.35705
679.136	6.83261
679.325	8.56895
679.515	8.3551
679.704	6.82129
679.894	14.25129
680.084	12.43663
680.273	16.45298
680.463	7.53971
680.652	8.37196
680.842	11.40124
681.031	15.41033
681.221	7.92694
681.41	14.13431
681.6	12.353
681.789	15.2242
681.978	17.75297
682.168	13.43515
682.357	13.96168
682.547	16.27756
682.736	14.1361
682.925	18.47564
683.115	18.33098
683.304	17.24101
683.493	14.84059
683.682	16.33582
683.872	15.20616
684.061	18.55705
684.25	16.60786
684.439	21.93426
684.629	16.57523
684.818	28.33048
685.007	13.0335
685.196	12.37591
685.385	22.09214
685.574	17.09432
685.763	16.19265
685.952	15.73309
686.142	9.57257
686.331	21.78558
686.52	6.61779
686.709	22.24972
686.898	21.37951
687.087	17.53298
687.276	22.10089
687.465	18.94601
687.654	13.4717
687.842	21.34506
688.031	7.95357
688.22	20.63413
688.409	15.55842
688.598	15.3927
688.787	26.56393
688.976	15.51615
689.165	24.76358
689.353	13.54567
689.542	16.65601
689.731	19.47712
689.92	25.60834
690.108	21.36093
690.297	13.6689
690.486	16.53354
690.675	20.16777
690.863	24.49134
691.052	24.17836
691.241	18.49679
691.429	17.51138
691.618	23.84905
691.806	10.82627
691.995	15.71227
692.184	16.93253
692.372	13.9431
692.561	17.69127
692.749	16.79071
692.938	29.56653
693.126	20.62416
693.315	14.93852
693.503	20.51364
693.692	20.33272
693.88	22.55138
694.068	29.34132
694.257	15.78611
694.445	19.13276
694.634	6.51085
694.822	21.71375
695.01	24.01465
695.199	24.72846
695.387	26.2013
695.575	24.80614
695.763	17.32153
695.952	15.09307
696.14	10.02091
696.328	14.39645
696.516	17.34134
696.705	18.64792
696.893	17.50233
697.081	7.91278
697.269	19.61753
697.457	10.34873
697.645	8.94844
697.833	18.99121
698.021	10.36558
698.21	12.31591
698.398	13.50987
698.586	8.43956
698.774	8.56973
698.962	12.58851
699.15	8.835
699.338	6.94509
699.526	16.27963
699.714	11.14182
699.901	12.39292
700.089	19.98228
700.277	11.14355
700.465	15.00859
700.653	19.74896
700.841	18.63437
701.029	12.57902
701.217	23.48527
701.404	17.65629
701.592	23.91959
701.78	27.82136
701.968	14.87155
702.155	16.11851
702.343	9.77943
702.531	25.81656
702.718	20.11816
702.906	16.62291
703.094	15.06747
703.281	25.34807
703.469	16.33981
703.657	25.58404
703.844	37.7042
704.032	29.99791
704.219	15.01615
704.407	20.61423
704.595	26.7733
704.782	20.12904
704.97	16.5828
705.157	15.94167
705.345	30.19826
705.532	35.4756
705.719	21.258
705.907	28.04118
706.094	20.56901
706.282	30.82091
706.469	18.03442
706.656	19.74764
706.844	17.87471
707.031	25.28674
707.218	22.39231
707.406	29.28115
707.593	24.02968
707.78	23.92702
707.968	19.33762
708.155	14.15437
708.342	24.10815
708.529	23.44501
708.716	21.37511
708.904	32.27954
709.091	24.46539
709.278	15.16304
709.465	31.39085
709.652	32.60725
709.839	29.65124
710.026	21.97117
710.213	10.96918
710.4	23.66774
710.587	27.16798
710.774	29.26825
710.961	27.97457
711.148	21.42648
711.335	29.13913
711.522	21.02894
711.709	23.73451
711.896	35.31127
712.083	27.58769
712.27	16.75098
712.457	23.29518
712.644	12.88603
712.831	35.73365
713.017	23.64725
713.204	26.68778
713.391	18.70903
713.578	30.76923
713.765	31.66445
713.951	25.65896
714.138	43.94285
714.325	27.37616
714.512	23.03971
714.698	18.31104
714.885	34.05389
715.072	24.88056
715.258	24.4932
715.445	19.30052
715.631	31.6449
715.818	7.17045
716.005	19.51998
716.191	26.42238
716.378	21.9317
716.564	29.21112
716.751	17.50656
716.937	20.09335
717.124	32.9131
717.31	18.49498
717.497	35.17848
717.683	19.85288
717.869	42.80718
718.056	20.74788
718.242	28.2348
718.429	23.62271
718.615	18.22793
718.801	25.9544
718.988	32.37746
719.174	29.89137
719.36	24.35183
719.547	35.7761
719.733	28.47068
719.919	28.91117
720.105	31.32795
720.291	25.02946
720.478	28.614
720.664	24.86696
720.85	22.77012
721.036	49.56437
721.222	38.5929
721.408	24.95852
721.595	43.09394
721.781	40.57159
721.967	35.49639
722.153	40.74474
722.339	33.26928
722.525	30.90115
722.711	19.89523
722.897	17.13394
723.083	24.50866
723.269	36.95248
723.455	49.66273
723.641	52.45882
723.827	31.46171
724.012	31.36836
724.198	25.33062
724.384	39.3942
724.57	31.90754
724.756	15.08584
724.942	12.51069
725.127	36.53701
725.313	40.96426
725.499	39.59069
725.685	45.47068
725.87	32.11518
726.056	20.85352
726.242	40.55693
726.428	16.0901
726.613	38.17948
726.799	26.5553
726.985	19.82196
727.17	17.03097
727.356	43.81155
727.541	22.32962
727.727	27.48654
727.913	35.18179
728.098	23.03204
728.284	35.8845
728.469	18.80204
728.655	23.06507
728.84	35.93171
729.026	35.61859
729.211	35.05971
729.397	32.5733
729.582	34.89224
729.767	28.63202
729.953	30.3647
730.138	38.50647
730.323	11.47432
730.509	19.16673
730.694	47.06029
730.879	32.54799
731.065	31.02787
731.25	49.71574
731.435	35.25891
731.621	16.55876
731.806	24.15253
731.991	30.94938
732.176	18.23027
732.361	40.21435
732.547	30.64241
732.732	15.55328
732.917	50.87556
733.102	19.95047
733.287	23.59118
733.472	29.64467
733.657	30.98993
733.842	18.39049
734.027	26.17837
734.212	29.79676
734.397	24.87658
734.582	30.65226
734.767	39.12033
734.952	44.50566
735.137	8.85606
735.322	44.48812
735.507	34.73431
735.692	33.44897
735.877	53.60037
736.062	48.09159
736.247	34.40226
736.431	31.51854
736.616	43.64594
736.801	34.03384
736.986	31.63973
737.171	22.25034
737.355	19.31152
737.54	44.20465
737.725	33.14891
737.909	58.85956
738.094	26.96879
738.279	40.9376
738.463	29.47207
738.648	37.38784
738.833	37.11041
739.017	51.01199
739.202	29.45393
739.386	32.23321
739.571	22.32115
739.756	39.28294
739.94	32.38881
740.125	42.82377
740.309	25.14411
740.494	42.09459
740.678	33.90367
740.863	38.12097
741.047	34.90628
741.231	45.04839
741.416	25.78554
741.6	50.90658
741.785	28.59384
741.969	41.18091
742.153	47.67104
742.338	12.79198
742.522	33.52235
742.706	42.72666
742.89	19.77062
743.075	36.29461
743.259	50.80193
743.443	43.71868
743.627	46.24099
743.812	59.37661
743.996	17.01507
744.18	31.66505
744.364	29.84162
744.548	62.5405
744.732	33.32234
744.916	42.63414
745.1	41.27816
745.285	31.43757
745.469	38.96575
745.653	56.50601
745.837	20.27781
746.021	60.52593
746.205	48.22975
746.389	38.15964
746.573	30.00516
746.757	52.71519
746.94	29.08149
747.124	48.34797
747.308	22.45377
747.492	50.39872
747.676	28.7936
747.86	63.03386
748.044	31.08786
748.227	15.28262
748.411	77.27168
748.595	39.39926
748.779	24.70968
748.963	42.34745
749.146	37.06494
749.33	26.22837
749.514	25.04597
749.697	49.52668
749.881	29.47239
750.065	26.66742
750.248	38.49374
750.432	66.18953
750.616	37.30801
750.799	21.35274
750.983	60.44221
751.166	71.39803
751.35	17.98265
751.533	46.24364
751.717	52.69336
751.9	57.21534
752.084	32.31206
752.267	26.2106
752.451	28.24417
752.634	38.28004
752.818	43.49605
753.001	48.81872
753.184	47.66441
753.368	41.26946
753.551	2.6785
753.734	28.32181
753.918	62.65552
754.101	29.48031
754.284	44.4369
754.467	32.87216
754.651	28.8812
754.834	30.80966
755.017	49.16685
755.2	49.97855
755.384	23.97092
755.567	47.10078
755.75	52.908
755.933	33.42214
756.116	42.51889
756.299	34.01544
756.482	27.70498
756.665	43.22771
756.848	36.32753
757.032	44.58502
757.215	18.53055
757.398	28.23567
757.581	27.74457
757.764	71.59319
757.947	37.86119
758.129	51.94497
758.312	6.2462
758.495	35.84382
758.678	34.31398
758.861	35.90413
759.044	64.3168
759.227	27.71792
759.41	25.99287
759.592	44.15006
759.775	35.53465
759.958	51.21367
760.141	21.07562
760.324	68.00019
760.506	58.41325
760.689	49.31588
760.872	68.84683
761.054	46.77721
761.237	34.50802
761.42	43.84606
761.602	50.19007
761.785	45.68301
761.968	48.43719
762.15	61.75835
762.333	34.53187
762.515	42.30597
762.698	29.84689
762.88	44.96129
763.063	39.38375
763.245	45.01846
763.428	25.55971
763.61	29.55153
763.793	21.50947
763.975	37.70703
764.158	31.39278
764.34	30.30982
764.522	23.88294
764.705	33.85074
764.887	54.55521
765.069	19.72501
765.252	48.9928
765.434	49.49609
765.616	39.23968
765.799	30.3614
765.981	50.11653
766.163	28.67823
766.345	51.48754
766.528	30.51915
766.71	11.43249
766.892	40.95673
767.074	56.71559
767.256	36.30035
767.438	63.53589
767.62	46.38296
767.802	72.67887
767.985	50.50809
768.167	69.11655
768.349	34.09317
768.531	46.20749
768.713	46.15674
768.895	55.39407
769.077	46.47062
769.259	80.34723
769.441	114.23588
769.623	55.48413
769.804	64.22378
769.986	64.19548
770.168	80.57425
770.35	100.25938
770.532	67.49758
770.714	74.72692
770.896	81.57059
771.077	30.71962
771.259	77.17173
771.441	67.64837
771.623	88.09115
771.804	112.22376
771.986	32.32119
772.168	51.76564
772.35	87.26999
772.531	115.12018
772.713	63.65933
772.894	88.76343
773.076	59.07558
773.258	53.4091
773.439	86.86089
773.621	101.24786
773.802	37.79831
773.984	49.76988
774.166	69.74762
774.347	94.75165
774.529	86.24853
774.71	25.48204
774.891	55.96368
775.073	57.90742
775.254	96.49641
775.436	50.97246
775.617	103.46375
775.799	56.94975
775.98	100.3221
776.161	105.62771
776.343	102.86382
776.524	62.43729
776.705	57.98178
776.886	29.18263
777.068	67.53716
777.249	126.95362
777.43	113.61449
777.611	42.04055
777.793	58.22483
777.974	105.46532
778.155	56.87334
778.336	44.42734
778.517	114.90131
778.698	49.28914
778.879	23.61932
779.061	8.43278
779.242	75.89688
779.423	72.0105
779.604	52.99145
779.785	61.40833
779.966	69.157
780.147	91.25465
780.328	92.69609
780.509	129.1291
780.69	79.65785
780.871	48.15411
781.051	35.21186
781.232	71.43785
781.413	69.66107
781.594	59.43229
781.775	53.40211
781.956	50.02621
782.137	24.71061
782.317	47.38573
782.498	72.93051
782.679	64.24617
782.86	67.79607
783.04	50.6589
783.221	71.70717
783.402	113.8307
783.583	67.6481
783.763	86.60619
783.944	56.69015
784.124	33.56977
784.305	106.07321
784.486	74.972
784.666	62.2827
784.847	27.84707
785.027	127.38336
785.208	46.68932
785.388	51.59945
785.569	51.3733
785.749	59.61952
785.93	50.68628
786.11	30.35061
786.291	75.34521
786.471	73.04583
786.652	80.06139
786.832	64.76492
787.012	75.58291
787.193	35.39771
787.373	65.3534
787.553	51.9843
787.734	69.99654
787.914	55.48091
788.094	77.51184
788.275	68.76563
788.455	55.89922
788.635	37.66909
788.815	69.50566
788.995	42.28224
789.176	33.9369
789.356	45.48792
789.536	58.2336
789.716	74.87046
789.896	48.78285
790.076	55.06948
790.256	67.02804
790.436	17.49453
790.616	46.19498
790.796	71.42656
790.976	55.51174
791.156	51.35282
791.336	82.79402
791.516	69.43174
791.696	61.41169
791.876	32.21021
792.056	71.04135
792.236	83.28702
792.416	80.73683
792.596	74.41164
792.776	72.96681
792.956	73.59494
793.135	97.97494
793.315	40.87115
793.495	94.86673
793.675	80.19109
793.854	85.08377
794.034	87.94383
794.214	37.05952
794.394	80.7325
794.573	92.89432
794.753	66.26486
794.933	48.34975
795.112	69.77186
795.292	86.14801
795.472	107.35495
795.651	36.26172
795.831	64.31036
796.01	55.61375
796.19	62.48528
796.369	58.95082
796.549	75.92941
796.728	61.94989
796.908	34.17302
797.087	42.03068
797.267	59.01031
797.446	37.10881
797.626	75.48673
797.805	78.54064
797.984	48.19614
798.164	79.88923
798.343	42.24897
798.522	68.73958
798.702	66.44032
798.881	32.12143
799.06	61.18777
799.239	21.07986
799.419	44.4553
799.598	99.8856
799.777	72.0178
799.956	96.55325
800.136	55.48737
800.315	48.12496
800.494	73.02855
800.673	90.63253
800.852	80.14844
801.031	91.55549
801.21	78.07707
801.389	49.01774
801.568	71.22998
801.747	108.86693
801.926	66.2806
802.105	101.79421
802.284	55.9956
802.463	105.04342
802.642	77.22614
802.821	71.5115
803	99.47947
803.179	81.74569
803.358	97.04943
803.537	52.34473
803.716	69.91771
803.895	46.2931
804.073	62.13816
804.252	49.62578
804.431	74.8502
804.61	65.0863
804.789	90.77901
804.967	54.07224
805.146	47.86012
805.325	115.5076
805.503	80.46074
805.682	33.62151
805.861	129.49386
806.039	92.20257
806.218	50.68037
806.397	71.69106
806.575	65.9099
806.754	72.12335
806.932	42.67953
807.111	102.0937
807.289	93.81763
807.468	70.7477
807.646	94.29898
807.825	79.75754
808.003	76.07674
808.182	93.05123
808.36	70.71622
808.539	51.84361
808.717	101.62747
808.895	50.10126
809.074	71.47214
809.252	62.1431
809.43	88.60328
809.609	95.37804
809.787	119.00232
809.965	62.14276
810.144	70.43698
810.322	58.18048
810.5	79.41986
810.678	61.32872
810.856	123.48927
811.035	98.35977
811.213	88.41736
811.391	101.9098
811.569	73.3942
811.747	143.89462
811.925	97.87364
812.103	53.50913
812.281	55.53826
812.459	121.66466
812.637	119.38425
812.816	98.64537
812.994	121.06496
813.171	98.75854
813.349	82.7885
813.527	104.39956
813.705	111.66783
813.883	137.85881
814.061	101.4144
814.239	122.03839
814.417	120.30962
814.595	86.22011
814.773	79.40865
814.95	80.5891
815.128	85.3882
815.306	75.24003
815.484	61.84674
815.662	52.18779
815.839	43.67682
816.017	56.53114
816.195	100.5379
816.372	63.74252
816.55	94.40229
816.728	118.78694
816.905	72.4004
817.083	119.29202
817.261	69.27636
817.438	138.55603
817.616	127.38637
817.793	61.8586
817.971	91.51811
818.148	89.27808
818.326	117.78249
818.503	82.90077
818.681	111.17483
818.858	59.15955
819.036	74.27488
819.213	79.01729
819.391	50.63217
819.568	48.04287
819.745	48.02172
819.923	94.07753
820.1	56.40854
820.277	48.21893
820.455	58.57554
820.632	61.33761
820.809	62.21194
820.986	40.78345
821.164	29.47978
821.341	25.65143
821.518	36.27868
821.695	24.88469
821.872	22.47327
822.05	18.49279
822.227	12.5687
822.404	13.93841
822.581	18.8977
822.758	13.97417
822.935	14.25676
823.112	17.93949
823.289	12.98677
823.466	19.27801
823.643	17.70166
823.82	23.37713
823.997	21.0881
824.174	27.5671
824.351	39.31861
824.528	38.83182
824.705	32.66366
824.882	38.2921
825.059	52.00863
825.236	32.10793
825.412	34.14974
825.589	44.24089
825.766	63.64292
825.943	36.47077
826.12	44.87577
826.296	27.21357
826.473	37.7979
826.65	35.61479
826.827	46.1321
827.003	27.57353
827.18	31.64174
827.357	37.76958
827.533	32.8812
827.71	15.42938
827.887	28.40181
828.063	35.51354
828.24	29.29299
828.416	43.17332
828.593	35.11212
828.769	54.16972
828.946	63.71091
829.122	68.132
829.299	59.2801
829.475	30.95105
829.652	60.35634
829.828	107.18056
830.005	58.83693
830.181	85.78829
830.357	57.32791
830.534	86.28111
830.71	64.00962
830.886	82.76199
831.063	80.13414
831.239	103.03411
831.415	45.34887
831.592	103.69196
831.768	65.47032
831.944	50.68581
832.12	100.9001
832.296	94.66022
832.473	83.4813
832.649	56.98999
832.825	77.83327
833.001	44.04738
833.177	65.74476
833.353	59.15283
833.529	31.28277
833.705	47.33551
833.881	33.6866
834.058	33.81489
834.234	37.41509
834.41	37.01076
834.586	28.46957
834.761	36.495
834.937	42.98228
835.113	45.71602
835.289	40.17568
835.465	52.56743
835.641	44.6854
835.817	51.21403
835.993	95.43467
836.169	44.18562
836.344	71.85495
836.52	82.25886
836.696	78.33235
836.872	53.18084
837.048	167.08181
837.223	63.35387
837.399	129.72984
837.575	102.00572
837.75	90.08311
837.926	128.53209
838.102	205.0931
838.277	158.31704
838.453	200.67841
838.628	187.86427
838.804	80.62794
838.98	195.17261
839.155	78.06718
839.331	120.47133
839.506	83.24522
839.682	82.73428
839.857	114.41142
840.033	126.88848
840.208	59.39361
840.384	28.50779
840.559	64.90271
840.734	104.88026
840.91	149.80485
841.085	90.62481
841.26	92.73318
841.436	84.69797
841.611	80.65854
841.786	126.93044
841.962	176.85539
842.137	102.07312
842.312	62.75838
842.487	83.21395
842.663	75.68162
842.838	79.08191
843.013	266.72714
843.188	127.51105
843.363	112.34684
843.538	261.48449
843.714	260.76313
843.889	251.90946
844.064	248.27395
844.239	211.58743
844.414	267.25682
844.589	173.2519
844.764	294.36326
844.939	280.3219
845.114	359.96425
845.289	313.88943
845.464	347.92974
845.639	277.1304
845.814	158.84146
845.989	177.83993
846.163	177.07751
846.338	223.48511
846.513	317.1197
846.688	202.76655
846.863	222.2334
847.038	189.90015
847.212	214.24217
847.387	215.08545
847.562	218.15391
847.737	230.00646
847.911	101.29145
848.086	138.08092
848.261	411.03553
848.435	186.28724
848.61	305.33113
848.785	138.31093
848.959	268.2348
849.134	363.45061
849.308	504.92952
849.483	197.21468
849.658	317.18827
849.832	196.60574
850.007	161.67256
850.181	408.00586
850.356	172.11986
850.53	364.82255
850.705	133.9204
850.879	91.42357
851.053	223.86093
851.228	182.244
851.402	279.67803
851.577	327.80167
851.751	300.63753
851.925	226.56102
852.099	86.48847
852.274	155.14121
852.448	200.83379
852.622	288.26248
852.797	213.59239
852.971	224.9034
853.145	262.7847
853.319	446.5064
853.493	339.07469
853.668	189.92923
853.842	368.02274
854.016	310.18147
854.19	413.73934
854.364	248.19335
854.538	261.00777
854.712	327.51569
854.886	218.08599
855.06	192.57532
855.234	66.86789
855.408	377.93114
855.582	337.9587
855.756	320.3761
855.93	381.61591
856.104	265.34509
856.278	322.80819
856.452	229.61887
856.626	277.9645
856.8	440.06321
856.973	285.74473
857.147	252.72742
857.321	284.23387
857.495	332.14497
857.669	224.41626
857.842	193.88916
858.016	342.08283
858.19	150.05204
858.364	565.7614
858.537	196.27648
858.711	239.51548
858.885	186.28283
859.058	162.94377
859.232	100.85898
859.405	108.18489
859.579	316.87067
859.753	266.30653
859.926	169.1352
860.1	109.03726
860.273	215.38039
860.447	414.43146
860.62	202.69207
860.794	423.90845
860.967	239.71282
861.141	333.8209
861.314	462.43599
861.487	264.89416
861.661	346.12142
861.834	409.35303
862.008	298.544
862.181	244.3631
862.354	266.4377
862.528	288.9613
862.701	176.22092
862.874	125.12512
863.047	198.38389
863.221	212.67856
863.394	105.58109
863.567	320.97276
863.74	66.79196
863.913	347.35127
864.087	267.52319
864.26	296.48849
864.433	216.00752
864.606	457.70748
864.779	235.65537
864.952	107.12558
865.125	192.8915
865.298	220.91967
865.471	233.24972
865.644	396.55204
865.817	321.04511
865.99	304.63998
866.163	374.90005
866.336	188.09333
866.509	204.39726
866.682	183.52201
866.855	339.96929
867.028	126.37149
867.2	271.37689
867.373	65.11264
867.546	246.47294
867.719	415.78869
867.892	255.13555
868.064	163.89049
868.237	261.86662
868.41	255.06957
868.583	105.3936
868.755	125.05857
868.928	194.27968
869.101	427.77115
869.273	309.4438
869.446	269.62472
869.619	339.65196
869.791	211.6007
869.964	330.63099
870.136	307.96578
870.309	244.1845
870.481	240.7243
870.654	128.0849
870.826	230.95959
870.999	193.96778
871.171	289.13154
871.344	181.46855
871.516	203.42344
871.689	150.41599
871.861	224.16056
872.033	177.64621
872.206	202.49017
872.378	304.95906
872.55	215.15492
872.723	134.02299
872.895	184.94809
873.067	319.24038
873.24	291.48307
873.412	185.99515
873.584	206.08449
873.756	190.39952
873.928	247.12832
874.101	234.85446
874.273	259.79137
874.445	95.51613
874.617	137.51879
874.789	224.86552
874.961	194.25592
875.133	257.98147
875.305	221.38977
875.477	139.50319
875.649	104.834
875.821	154.51897
875.993	333.41723
876.165	149.43117
876.337	227.60634
876.509	220.57348
876.681	231.06739
876.853	247.23653
877.025	238.49283
877.197	159.85495
877.369	139.18026
877.541	274.31157
877.712	67.28948
877.884	126.8925
878.056	224.98783
878.228	125.62182
878.4	254.81201
878.571	129.98472
878.743	93.4937
878.915	196.4676
879.086	120.71968
879.258	154.93205
879.43	127.8513
879.601	113.61602
879.773	117.36004
879.945	25.90396
880.116	45.61519
880.288	26.5559
880.459	31.04717
880.631	21.54077
880.802	26.90186
880.974	25.2961
881.145	16.21458
881.317	24.14595
881.488	16.10701
881.66	19.86106
881.831	17.07082
882.002	26.89916
882.174	17.2731
882.345	26.00612
882.517	10.49147
882.688	35.53456
882.859	27.84961
883.03	51.08959
883.202	49.33928
883.373	44.55613
883.544	42.51321
883.715	76.39826
883.887	64.35037
884.058	51.01164
884.229	79.01482
884.4	77.27327
884.571	90.19346
884.742	66.53106
884.914	76.86952
885.085	113.09001
885.256	158.41746
885.427	123.82008
885.598	141.24856
885.769	147.15156
885.94	151.48685
886.111	97.04598
886.282	174.60914
886.453	129.79646
886.624	99.01009
886.795	184.98292
886.966	137.64914
887.136	189.73496
887.307	115.43355
887.478	255.29563
887.649	210.28289
887.82	208.18447
887.991	161.26514
888.161	247.37644
888.332	209.54892
888.503	110.87165
888.674	287.25406
888.844	324.34083
889.015	245.79009
889.186	122.07091
889.356	313.67325
889.527	100.89151
889.698	463.75634
889.868	162.96827
890.039	240.64484
890.209	187.43887
890.38	253.49783
890.551	214.55072
890.721	292.4826
890.892	277.15321
891.062	185.7263
891.233	238.10536
891.403	170.12509
891.574	125.44092
891.744	190.86692
891.914	195.76402
892.085	181.37844
892.255	49.30679
892.425	290.61505
892.596	207.43278
892.766	231.19912
892.936	281.20352
893.107	242.4537
893.277	126.20346
893.447	98.18428
893.618	64.04568
893.788	146.61875
893.958	82.13031
894.128	75.72853
894.298	83.73787
894.468	118.05912
894.639	54.07474
894.809	33.11482
894.979	60.32772
895.149	75.08289
895.319	56.99411
895.489	82.39423
895.659	116.61418
895.829	74.95051
895.999	87.14722
896.169	65.3504
896.339	85.1433
896.509	181.89873
896.679	190.63378
896.849	199.15025
897.019	261.92085
897.189	191.34625
897.358	169.8348
897.528	269.67492
897.698	90.42863
897.868	233.19121
898.038	394.99718
898.208	357.70757
898.377	92.29446
898.547	334.41392
898.717	477.43617
898.886	234.6176
899.056	382.51682
899.226	470.65764
899.395	308.72185
899.565	455.45721
899.735	296.97233
899.904	459.39974
900.074	390.19129
900.244	166.48758
900.413	608.94375
900.583	147.96654
900.752	281.41748
900.922	400.97604
901.091	38.85516
901.261	320.88687
901.43	319.30363
901.599	315.95591
901.769	702.64475
901.938	453.0818
902.108	330.82863
902.277	446.80126
902.446	119.93636
902.616	166.88814
902.785	196.66319
902.954	366.89295
903.124	205.40423
903.293	167.47639
903.462	89.15322
903.631	137.5254
903.801	98.65301
903.97	51.5958
904.139	88.16905
904.308	67.29016
904.477	54.06464
904.646	34.56644
904.816	52.0061
904.985	84.78744
905.154	140.99925
