Data from WindowProjectSample3_Transmission__8__00008.txt Node

Date: Sun May 04 09:47:44 EDT 2025
User: jessi
Spectrometer: SR400872
Trigger mode: 0
Integration Time (sec): 5.000070E-1
Scans to average: 10
Electric dark correction enabled: true
Nonlinearity correction enabled: true
Boxcar width: 0
XAxis mode: Wavelengths
Number of Pixels in Spectrum: 3648
>>>>>Begin Spectral Data<<<<<
184.909	-5626.42938
185.132	11374.89174
185.355	-8086.60577
185.578	-54362.93116
185.801	2714.20249
186.024	-138463.78915
186.247	-897.70936
186.47	1438.5215
186.693	1024.67469
186.916	-501.53589
187.139	-2560563.92878
187.362	-2765.89524
187.585	7377.97539
187.808	2080.9199
188.031	-102.70496
188.254	4803.83021
188.476	-1772.35316
188.699	2484.37336
188.922	413.71802
189.145	-6048.96252
189.368	-3794.11377
189.591	1710.48098
189.813	-148212.91008
190.036	9081.11041
190.259	1580.20409
190.482	5899.64809
190.705	16881.39856
190.927	17389.868
191.15	-4074.40939
191.373	2081.67318
191.595	1482.62576
191.818	17161.73455
192.041	918.27397
192.263	-8046.32658
192.486	-1721.0114
192.709	2866.0198
192.931	-3263.22661
193.154	13523.69812
193.377	2574.47123
193.599	27214.53777
193.822	2343.91398
194.044	2081.99683
194.267	1012.65453
194.489	33.15933
194.712	3576.98908
194.934	33955.93018
195.157	-475.06453
195.379	11378.39579
195.602	1838.66778
195.824	4499.23278
196.047	6606.20415
196.269	13637.64835
196.492	-12210.60023
196.714	3889.51786
196.936	7032.49081
197.159	11015.03907
197.381	4247.63062
197.604	2193854.33917
197.826	1979.9883
198.048	2139.03471
198.271	8973.91521
198.493	1978.20007
198.715	2702.11867
198.938	7895.14577
199.16	3662.71653
199.382	9522.50446
199.604	9603.36815
199.827	1743.57162
200.049	3178.80942
200.271	20101.84764
200.493	1746.58357
200.715	7467.1194
200.938	7838.95478
201.16	-3755.94383
201.382	32043.67866
201.604	4026.25137
201.826	8441.63756
202.048	4335.50554
202.27	1839.63345
202.492	5995.4967
202.715	20479.03307
202.937	4018.81651
203.159	1527.30481
203.381	2024.31479
203.603	2793.94397
203.825	-1577.38204
204.047	-23652.71251
204.269	3282.69359
204.491	6961.07417
204.713	-1715572.68307
204.935	2473.49551
205.156	3953.72797
205.378	1617.01594
205.6	37164.73944
205.822	4771.94999
206.044	3477.04229
206.266	5913.52934
206.488	1610.59704
206.71	8966.04756
206.932	1532.6078
207.153	30070.99118
207.375	16420.95332
207.597	12544.77997
207.819	39413.49756
208.041	-44454.18772
208.262	1246.83989
208.484	12822.75421
208.706	3781.9808
208.927	2667.65007
209.149	864.93078
209.371	3638.11568
209.593	881.79521
209.814	10492.33518
210.036	-453041.77418
210.258	1448.01991
210.479	2189.68748
210.701	3427.10512
210.922	-5677.22665
211.144	-3239.363
211.366	5064.7681
211.587	2717.5861
211.809	5732.27005
212.03	-66355.33905
212.252	461.84963
212.473	854.23057
212.695	708.8812
212.916	1244.19562
213.138	699.07074
213.359	5118.30572
213.581	2946.33014
213.802	826.66724
214.024	7314.52956
214.245	-13481.53344
214.466	535.52691
214.688	3829.87464
214.909	10602.67665
215.131	4197.838
215.352	2391.01218
215.573	11668.95586
215.795	2179.11602
216.016	1953.4629
216.237	-716436.47335
216.459	1964.33937
216.68	5909.20001
216.901	3086.75594
217.122	705.84301
217.344	2978.90116
217.565	7008.37974
217.786	3470.85205
218.007	993.63447
218.228	2252.6935
218.45	-17572.31562
218.671	45062.39808
218.892	21100.37283
219.113	1645.38122
219.334	8079.23718
219.555	-7869.49883
219.776	1835.72854
219.997	4202.19857
220.219	1107.77595
220.44	1667.26711
220.661	1749.00634
220.882	5661.54402
221.103	1463.58317
221.324	7797.66529
221.545	3134.82771
221.766	3140.20649
221.987	1461.48193
222.208	953.85582
222.429	2226.517
222.65	201.53901
222.87	818.90611
223.091	1704.22282
223.312	1168.45377
223.533	1946.01809
223.754	1618.42929
223.975	1685.1419
224.196	1050.73276
224.417	4974.42463
224.637	731.51435
224.858	85.68682
225.079	1173.62589
225.3	641.10775
225.521	2336.97869
225.741	645.12765
225.962	640.19866
226.183	175.96915
226.404	971.93215
226.624	549.05904
226.845	619.03275
227.066	464.08385
227.286	302.37474
227.507	190.39227
227.728	152.4167
227.948	281.56091
228.169	100.90489
228.389	105.0009
228.61	58.83109
228.831	85.16569
229.051	7.68787
229.272	50.46007
229.492	74.90614
229.713	20.24515
229.933	52.884
230.154	44.61549
230.374	74.98026
230.595	56.72879
230.815	37.86228
231.036	58.01519
231.256	-11.38773
231.477	95.76047
231.697	56.36612
231.917	59.38625
232.138	81.94473
232.358	153.78751
232.579	152.59047
232.799	32.02563
233.019	135.05358
233.24	153.50614
233.46	62.03655
233.68	86.34619
233.901	58.04875
234.121	38.8505
234.341	15.51703
234.561	-4.17158
234.782	31.64441
235.002	96.30631
235.222	-0.18825
235.442	90.519
235.662	47.75588
235.883	86.66959
236.103	76.60582
236.323	54.46825
236.543	42.91814
236.763	60.62456
236.983	61.58213
237.203	64.0011
237.423	85.26371
237.643	128.40631
237.864	109.85204
238.084	33.70111
238.304	36.72701
238.524	68.94491
238.744	59.47872
238.964	96.84446
239.184	89.78522
239.404	94.36265
239.624	46.38801
239.843	84.73118
240.063	45.91276
240.283	31.49896
240.503	37.47523
240.723	36.18144
240.943	23.29298
241.163	27.90608
241.383	21.30474
241.603	9.91331
241.822	13.29138
242.042	8.70365
242.262	12.10447
242.482	13.19504
242.702	15.10941
242.921	5.39693
243.141	10.68991
243.361	9.56863
243.581	14.40245
243.8	12.48994
244.02	8.21765
244.24	14.68142
244.459	14.73113
244.679	27.92384
244.899	18.98466
245.118	21.4518
245.338	19.26169
245.558	21.69331
245.777	13.1897
245.997	14.59301
246.216	14.53704
246.436	8.67142
246.655	6.03679
246.875	4.171
247.094	8.80372
247.314	3.28047
247.533	5.59315
247.753	6.62005
247.972	5.41493
248.192	2.08875
248.411	3.31642
248.631	5.59499
248.85	7.28865
249.07	6.18493
249.289	9.59315
249.508	6.61076
249.728	11.78184
249.947	11.17482
250.166	13.44251
250.386	7.83162
250.605	10.96089
250.824	17.83867
251.044	12.64206
251.263	36.57441
251.482	19.91109
251.701	17.10185
251.921	0.22607
252.14	5.6293
252.359	6.64083
252.578	15.06035
252.798	5.46112
253.017	12.8354
253.236	7.08986
253.455	9.11513
253.674	17.73062
253.893	9.29409
254.112	12.67312
254.331	18.67067
254.551	16.17165
254.77	7.1182
254.989	21.25049
255.208	16.88977
255.427	23.18132
255.646	20.25642
255.865	32.02156
256.084	14.31784
256.303	16.00967
256.522	19.53657
256.741	3.74824
256.96	4.49588
257.179	11.74348
257.397	16.94764
257.616	8.78187
257.835	9.42518
258.054	22.58093
258.273	14.81284
258.492	15.61865
258.711	9.67007
258.93	4.35512
259.148	6.11198
259.367	6.26197
259.586	7.95205
259.805	3.43898
260.023	7.01823
260.242	5.43612
260.461	4.06234
260.68	2.13511
260.898	6.43986
261.117	2.35238
261.336	1.53954
261.554	5.57708
261.773	5.8018
261.992	1.39631
262.21	5.82082
262.429	6.38645
262.648	10.69791
262.866	12.65547
263.085	8.01668
263.303	8.30679
263.522	12.8015
263.74	13.74554
263.959	22.76723
264.178	12.40306
264.396	10.02929
264.615	7.68018
264.833	17.05257
265.051	14.2327
265.27	15.31992
265.488	16.23617
265.707	10.07541
265.925	15.78696
266.144	7.40129
266.362	8.84024
266.58	8.63931
266.799	7.35029
267.017	8.82142
267.235	7.53518
267.454	5.13087
267.672	3.01616
267.89	6.70535
268.109	6.75514
268.327	7.14984
268.545	1.56616
268.763	5.98069
268.982	3.09569
269.2	7.37202
269.418	4.49585
269.636	3.50789
269.854	6.97915
270.073	4.84762
270.291	2.86474
270.509	2.90024
270.727	6.70499
270.945	10.73146
271.163	10.76069
271.381	2.70099
271.599	4.01912
271.817	7.80923
272.036	2.59583
272.254	4.67043
272.472	3.47518
272.69	3.72119
272.908	3.96519
273.126	6.15709
273.344	7.98123
273.562	2.89072
273.779	3.89121
273.997	5.98107
274.215	6.42006
274.433	4.61869
274.651	6.46113
274.869	7.3642
275.087	4.33375
275.305	6.20982
275.523	4.34064
275.74	4.98284
275.958	7.94524
276.176	12.00143
276.394	3.81748
276.612	5.41117
276.829	5.16512
277.047	4.4705
277.265	4.54459
277.483	5.64271
277.7	6.69404
277.918	5.42092
278.136	9.45756
278.353	4.45953
278.571	2.81872
278.789	7.44552
279.006	1.89263
279.224	4.35549
279.442	7.22019
279.659	5.40039
279.877	3.86527
280.094	8.12628
280.312	2.22403
280.529	5.19642
280.747	1.81824
280.964	4.33757
281.182	8.55597
281.399	4.49383
281.617	5.6624
281.834	3.71849
282.052	3.06249
282.269	4.84847
282.487	3.8583
282.704	3.50429
282.921	3.31642
283.139	5.06337
283.356	6.59614
283.574	5.79987
283.791	2.84125
284.008	8.03867
284.226	4.5127
284.443	4.99243
284.66	6.25074
284.877	5.09216
285.095	3.09562
285.312	2.23699
285.529	1.60961
285.746	1.41589
285.964	3.24934
286.181	2.22201
286.398	2.8421
286.615	4.12846
286.832	4.1126
287.05	1.12738
287.267	3.01312
287.484	3.09171
287.701	4.19213
287.918	4.12732
288.135	4.12024
288.352	1.82032
288.569	2.45386
288.786	3.74597
289.003	2.92408
289.22	4.45627
289.437	2.32752
289.654	4.40973
289.871	4.51119
290.088	4.50551
290.305	3.25736
290.522	2.66223
290.739	3.00962
290.956	4.58085
291.173	5.64054
291.39	5.3461
291.607	3.75844
291.824	2.90294
292.04	1.96484
292.257	4.58034
292.474	5.016
292.691	3.18172
292.908	1.83691
293.125	2.72353
293.341	1.87947
293.558	7.68224
293.775	2.85577
293.992	3.38823
294.208	1.47784
294.425	2.25516
294.642	2.99061
294.858	4.25711
295.075	1.39519
295.292	3.21246
295.508	4.04528
295.725	5.82848
295.942	3.17839
296.158	2.63138
296.375	4.11889
296.591	3.32452
296.808	3.71105
297.024	4.4106
297.241	4.82356
297.458	5.2158
297.674	2.34686
297.891	4.7427
298.107	4.73583
298.323	3.97152
298.54	6.89815
298.756	4.90641
298.973	3.9802
299.189	7.67697
299.406	5.40292
299.622	7.73813
299.838	8.09214
300.055	7.50899
300.271	5.24563
300.487	5.63865
300.704	6.52873
300.92	5.64021
301.136	10.70504
301.353	9.10351
301.569	7.94686
301.785	8.48161
302.001	9.21478
302.218	8.88696
302.434	9.48234
302.65	6.96081
302.866	8.3722
303.083	11.87389
303.299	12.42822
303.515	9.23023
303.731	10.21382
303.947	7.79085
304.163	9.1109
304.379	9.80991
304.595	10.43426
304.812	8.99869
305.028	9.12398
305.244	9.28196
305.46	11.06891
305.676	11.10963
305.892	12.3083
306.108	11.4717
306.324	10.22918
306.54	13.25049
306.756	11.04689
306.972	11.11892
307.187	10.81917
307.403	12.32796
307.619	10.52706
307.835	12.30243
308.051	12.85089
308.267	9.92487
308.483	13.26661
308.699	12.2168
308.914	12.09502
309.13	11.7324
309.346	10.33722
309.562	10.93061
309.778	10.39526
309.993	12.85036
310.209	12.69361
310.425	11.0032
310.641	12.53086
310.856	11.48209
311.072	11.7709
311.288	13.00784
311.503	13.6122
311.719	11.11352
311.935	11.11952
312.15	13.92069
312.366	13.41757
312.581	13.95279
312.797	13.52098
313.013	14.33949
313.228	12.35108
313.444	12.89557
313.659	12.01729
313.875	13.68683
314.09	12.81053
314.306	14.91063
314.521	14.5987
314.737	14.1523
314.952	13.71663
315.168	13.76395
315.383	14.15811
315.599	12.68413
315.814	13.33495
316.029	14.46668
316.245	12.56457
316.46	11.28235
316.675	15.23576
316.891	15.98788
317.106	17.87774
317.321	14.11816
317.537	14.60872
317.752	14.96687
317.967	15.57941
318.183	12.70342
318.398	13.9354
318.613	15.34785
318.828	15.944
319.043	14.90035
319.259	13.84024
319.474	14.46798
319.689	15.86935
319.904	11.8839
320.119	16.09774
320.334	14.24072
320.549	14.72577
320.765	16.06628
320.98	15.3458
321.195	14.9499
321.41	14.50989
321.625	15.71966
321.84	17.18084
322.055	16.02217
322.27	13.80058
322.485	13.1749
322.7	15.7836
322.915	16.54992
323.13	14.829
323.345	17.90143
323.56	17.21789
323.775	16.83146
323.989	16.25807
324.204	16.10623
324.419	17.44979
324.634	14.54256
324.849	16.3413
325.064	19.56657
325.279	17.6434
325.493	16.76695
325.708	17.73432
325.923	15.35682
326.138	16.23822
326.352	18.35929
326.567	17.78345
326.782	15.86312
326.997	16.08241
327.211	17.26257
327.426	17.37672
327.641	16.76619
327.855	14.80728
328.07	17.58284
328.285	19.37773
328.499	16.29871
328.714	17.29327
328.928	17.7136
329.143	17.18107
329.358	18.61198
329.572	18.52373
329.787	19.21776
330.001	20.65078
330.216	15.37309
330.43	20.42398
330.645	19.03261
330.859	18.44664
331.074	15.6656
331.288	18.01769
331.503	20.08921
331.717	16.17354
331.931	17.54569
332.146	18.57652
332.36	20.95644
332.575	18.73487
332.789	18.13712
333.003	18.84944
333.218	19.11394
333.432	17.8352
333.646	19.63907
333.86	21.24222
334.075	20.76124
334.289	17.88439
334.503	16.64755
334.717	20.11106
334.932	19.00697
335.146	20.01822
335.36	17.95056
335.574	19.91692
335.788	19.19508
336.003	20.16216
336.217	20.28838
336.431	19.34335
336.645	17.88576
336.859	17.38157
337.073	18.92892
337.287	19.5686
337.501	17.68192
337.715	20.7124
337.929	20.62704
338.143	18.76317
338.357	20.04844
338.571	19.66943
338.785	21.64748
338.999	19.75679
339.213	19.71085
339.427	19.11851
339.641	21.96575
339.855	19.7866
340.069	19.21621
340.283	21.90857
340.497	22.64677
340.711	21.53047
340.924	20.57582
341.138	19.60901
341.352	18.74665
341.566	21.14149
341.78	19.34703
341.993	20.43004
342.207	20.29824
342.421	21.79818
342.635	20.78625
342.848	20.6919
343.062	18.29217
343.276	20.48844
343.49	24.05345
343.703	20.77645
343.917	22.71777
344.131	23.25544
344.344	20.65245
344.558	21.33942
344.771	20.40352
344.985	23.7814
345.199	24.20131
345.412	22.64501
345.626	22.62433
345.839	20.20061
346.053	20.76975
346.266	21.26444
346.48	22.94619
346.693	22.88105
346.907	22.92214
347.12	21.1546
347.334	22.52425
347.547	22.95964
347.76	22.30883
347.974	23.98832
348.187	22.46155
348.401	22.01009
348.614	21.28987
348.827	22.34715
349.041	22.94037
349.254	20.29387
349.467	22.1526
349.681	21.63621
349.894	21.68488
350.107	24.30879
350.32	25.31997
350.534	21.40755
350.747	22.92843
350.96	22.03735
351.173	22.36301
351.386	22.68263
351.6	22.57745
351.813	22.61265
352.026	22.81871
352.239	22.37659
352.452	22.76614
352.665	24.76228
352.878	23.04263
353.092	26.34524
353.305	24.45808
353.518	24.07912
353.731	22.59847
353.944	24.90802
354.157	23.36826
354.37	23.47301
354.583	22.31535
354.796	22.55344
355.009	25.34852
355.222	24.15904
355.435	24.08448
355.647	25.50306
355.86	23.57786
356.073	24.45233
356.286	23.95023
356.499	25.61441
356.712	25.62675
356.925	25.63224
357.138	26.00998
357.35	24.02467
357.563	24.31552
357.776	25.24411
357.989	25.22487
358.201	25.79478
358.414	25.69331
358.627	26.68228
358.84	25.0423
359.052	23.94979
359.265	24.15398
359.478	26.32537
359.69	22.33585
359.903	26.3736
360.116	26.68551
360.328	23.94816
360.541	26.3261
360.753	25.39961
360.966	25.74319
361.179	25.78597
361.391	25.71755
361.604	25.58789
361.816	25.66976
362.029	25.84888
362.241	25.55185
362.454	26.04991
362.666	25.64415
362.879	26.97129
363.091	25.87925
363.304	25.5884
363.516	25.89202
363.728	25.02391
363.941	26.55197
364.153	26.18993
364.366	23.85729
364.578	24.81028
364.79	26.50372
365.003	26.65734
365.215	25.34729
365.427	26.52251
365.639	27.13812
365.852	26.13469
366.064	27.9254
366.276	26.04585
366.488	26.42816
366.701	26.01701
366.913	25.79949
367.125	25.83189
367.337	25.45208
367.549	25.8497
367.762	26.01925
367.974	26.21659
368.186	26.07904
368.398	27.3974
368.61	26.78245
368.822	26.99552
369.034	25.5831
369.246	27.45318
369.458	29.31336
369.67	25.57181
369.882	28.09739
370.094	24.31682
370.306	27.95869
370.518	26.39712
370.73	26.17569
370.942	26.24129
371.154	26.67069
371.366	26.35937
371.578	27.62351
371.79	26.55119
372.002	28.03923
372.214	29.43032
372.425	26.81558
372.637	28.83638
372.849	27.30641
373.061	24.64725
373.273	27.47671
373.484	27.57798
373.696	27.84448
373.908	24.56278
374.12	27.9253
374.331	27.7096
374.543	26.04393
374.755	26.10724
374.967	27.24225
375.178	28.48903
375.39	26.70559
375.602	27.49244
375.813	25.80389
376.025	26.50489
376.236	27.60417
376.448	28.32301
376.66	27.68935
376.871	27.54035
377.083	28.6434
377.294	29.78641
377.506	27.3155
377.717	29.57336
377.929	28.33413
378.14	27.78082
378.352	28.49835
378.563	29.06891
378.775	29.34294
378.986	27.06354
379.197	28.60832
379.409	27.40823
379.62	28.49023
379.832	28.14626
380.043	27.4164
380.254	28.33578
380.466	26.84387
380.677	31.1422
380.888	30.32002
381.1	31.11405
381.311	30.15152
381.522	28.70524
381.733	31.43082
381.945	28.12742
382.156	27.99815
382.367	27.90971
382.578	31.2043
382.789	31.57577
383.001	27.68624
383.212	30.24198
383.423	30.81338
383.634	29.93619
383.845	29.64553
384.056	28.32846
384.267	29.14588
384.478	28.90634
384.69	27.77422
384.901	29.61821
385.112	29.0277
385.323	30.93481
385.534	29.44371
385.745	29.54155
385.956	29.12765
386.167	28.30014
386.378	29.60576
386.588	28.35489
386.799	28.05389
387.01	27.83571
387.221	30.17172
387.432	29.23762
387.643	31.32316
387.854	28.89301
388.065	28.78983
388.275	29.2719
388.486	28.85928
388.697	29.43684
388.908	28.69765
389.119	30.5482
389.329	30.8647
389.54	29.3384
389.751	29.73912
389.962	30.88588
390.172	29.54712
390.383	29.35921
390.594	28.91713
390.804	29.06579
391.015	29.13852
391.226	30.03617
391.436	30.64347
391.647	30.29996
391.858	30.62757
392.068	28.55019
392.279	29.06868
392.489	30.52001
392.7	30.7294
392.91	29.33751
393.121	29.06143
393.331	30.63521
393.542	31.27886
393.752	30.83267
393.963	30.09502
394.173	30.41629
394.384	30.93955
394.594	30.33748
394.804	29.30529
395.015	30.50928
395.225	30.94612
395.436	29.54818
395.646	30.65257
395.856	29.64514
396.067	28.9387
396.277	31.04604
396.487	30.6843
396.697	30.6919
396.908	30.8112
397.118	30.49137
397.328	30.45275
397.538	30.92602
397.749	29.35392
397.959	31.36413
398.169	30.59505
398.379	28.87773
398.589	30.62982
398.8	31.02345
399.01	30.39123
399.22	30.24954
399.43	32.42748
399.64	30.38879
399.85	31.02829
400.06	30.87929
400.27	29.68942
400.48	30.53665
400.69	31.78923
400.9	30.0231
401.11	29.3986
401.32	31.48608
401.53	29.81178
401.74	31.94455
401.95	31.27158
402.16	30.42572
402.37	31.06971
402.58	30.29745
402.79	31.25844
403	31.69962
403.209	30.07058
403.419	31.76999
403.629	30.2895
403.839	32.05419
404.049	32.02587
404.258	30.69667
404.468	30.26696
404.678	32.0871
404.888	32.42999
405.097	30.91012
405.307	31.29502
405.517	31.97426
405.727	31.83596
405.936	30.96274
406.146	31.40868
406.356	32.55593
406.565	31.23794
406.775	30.7119
406.984	30.95902
407.194	33.36248
407.404	31.53108
407.613	31.94872
407.823	32.16204
408.032	32.89723
408.242	32.47358
408.451	31.03484
408.661	31.11876
408.87	33.14562
409.08	31.04917
409.289	31.86001
409.499	31.77887
409.708	31.75831
409.918	29.92036
410.127	31.92176
410.336	33.05772
410.546	32.79415
410.755	31.57337
410.964	31.77952
411.174	31.18382
411.383	32.4543
411.592	32.21297
411.802	30.84007
412.011	32.45574
412.22	31.73224
412.429	33.2794
412.639	33.42855
412.848	32.86997
413.057	33.50282
413.266	33.18289
413.475	32.23413
413.685	32.86202
413.894	32.92863
414.103	33.43396
414.312	32.93858
414.521	32.10694
414.73	32.3114
414.939	34.26536
415.148	33.08765
415.357	32.65027
415.566	32.20992
415.776	32.02388
415.985	32.13928
416.194	33.49542
416.403	34.77776
416.611	31.69313
416.82	32.33751
417.029	33.12086
417.238	32.44955
417.447	32.31753
417.656	32.92829
417.865	32.5021
418.074	33.08352
418.283	33.17848
418.492	34.13629
418.7	33.76414
418.909	34.76421
419.118	33.575
419.327	33.84994
419.536	33.58813
419.744	33.22798
419.953	34.49164
420.162	34.61445
420.371	34.24863
420.579	36.09998
420.788	36.96246
420.997	37.19758
421.205	38.01475
421.414	37.63683
421.623	37.50757
421.831	36.89852
422.04	37.43715
422.249	35.47396
422.457	35.58517
422.666	34.16184
422.874	35.18445
423.083	35.93228
423.291	36.20076
423.5	36.54744
423.708	37.48929
423.917	38.47862
424.125	37.59974
424.334	37.6215
424.542	39.62227
424.751	38.90482
424.959	37.81062
425.167	37.209
425.376	36.83086
425.584	34.37291
425.793	34.74178
426.001	33.74227
426.209	35.12476
426.418	33.98057
426.626	33.95013
426.834	33.72381
427.042	34.17359
427.251	33.91277
427.459	35.08286
427.667	34.65191
427.875	33.23403
428.084	33.85434
428.292	35.39094
428.5	34.98806
428.708	33.63678
428.916	33.80023
429.124	34.47621
429.333	34.22636
429.541	34.42194
429.749	34.52632
429.957	34.27363
430.165	36.80037
430.373	33.73986
430.581	34.67818
430.789	35.87462
430.997	34.3254
431.205	33.80744
431.413	35.06
431.621	34.42014
431.829	35.48251
432.037	34.68491
432.245	35.66406
432.453	35.32297
432.661	34.85458
432.869	36.71645
433.076	34.43922
433.284	35.13138
433.492	35.84655
433.7	35.97602
433.908	34.85201
434.116	35.28265
434.323	35.28502
434.531	35.22974
434.739	35.7803
434.947	35.90343
435.154	36.13588
435.362	35.39802
435.57	35.14459
435.778	34.90416
435.985	35.6238
436.193	34.78566
436.401	36.42462
436.608	35.43834
436.816	35.18723
437.023	36.95836
437.231	37.04957
437.439	35.64728
437.646	36.04687
437.854	36.08332
438.061	36.12193
438.269	35.31788
438.476	36.38455
438.684	35.8278
438.891	35.36401
439.099	35.35821
439.306	34.99322
439.514	35.23033
439.721	36.55096
439.929	35.86211
440.136	36.56802
440.343	36.32844
440.551	36.03329
440.758	37.81479
440.965	36.70907
441.173	36.30505
441.38	35.96503
441.587	36.62249
441.795	36.06027
442.002	36.62535
442.209	36.5926
442.416	36.72937
442.624	36.81347
442.831	36.61541
443.038	35.98436
443.245	35.5072
443.452	35.97915
443.66	37.08609
443.867	35.98193
444.074	35.99197
444.281	35.83828
444.488	36.14469
444.695	36.48884
444.902	36.17776
445.109	37.15579
445.316	36.38368
445.523	36.47449
445.73	36.80589
445.937	37.87495
446.144	38.96031
446.351	39.75204
446.558	37.70044
446.765	41.02955
446.972	39.04529
447.179	38.4957
447.386	38.7358
447.593	36.4988
447.8	37.85412
448.007	36.83832
448.214	36.9145
448.42	36.59295
448.627	37.76215
448.834	36.86822
449.041	36.69017
449.248	36.6115
449.454	37.7632
449.661	38.55307
449.868	36.50441
450.075	36.57631
450.281	35.25733
450.488	36.21419
450.695	36.30425
450.901	36.44387
451.108	36.24085
451.315	37.77314
451.521	36.71773
451.728	37.6132
451.935	36.51804
452.141	37.16664
452.348	37.10063
452.554	37.09328
452.761	36.84143
452.967	38.62453
453.174	37.2569
453.38	37.63561
453.587	36.19274
453.793	37.42153
454	37.66492
454.206	38.79875
454.413	38.22689
454.619	37.86736
454.825	36.58697
455.032	37.99223
455.238	37.92736
455.445	36.37855
455.651	37.23462
455.857	35.90642
456.064	37.4503
456.27	37.30708
456.476	37.20291
456.682	36.50566
456.889	37.54795
457.095	37.6167
457.301	39.17331
457.507	37.79842
457.714	37.7178
457.92	37.72736
458.126	37.01419
458.332	37.65117
458.538	37.43928
458.744	37.74546
458.951	37.4924
459.157	39.2187
459.363	38.35124
459.569	37.96883
459.775	38.51738
459.981	38.7074
460.187	38.90974
460.393	38.74157
460.599	39.34812
460.805	38.43905
461.011	38.26175
461.217	38.97093
461.423	39.25985
461.629	37.87575
461.835	38.6776
462.041	37.86005
462.247	39.61481
462.453	37.82099
462.658	37.96654
462.864	38.81442
463.07	38.35978
463.276	38.48922
463.482	38.37729
463.688	39.53203
463.893	37.62929
464.099	38.14488
464.305	39.8168
464.511	38.13024
464.716	38.54101
464.922	39.01283
465.128	37.67669
465.333	40.01416
465.539	39.1686
465.745	38.50241
465.95	38.80148
466.156	40.77776
466.362	39.66157
466.567	38.63971
466.773	38.10955
466.978	39.80661
467.184	37.6081
467.389	36.92783
467.595	38.98249
467.8	37.94915
468.006	39.86745
468.211	39.62749
468.417	37.76385
468.622	39.28684
468.828	39.38708
469.033	38.94613
469.239	41.14969
469.444	38.45846
469.649	39.42015
469.855	38.89157
470.06	39.18279
470.266	38.13809
470.471	39.67961
470.676	39.42966
470.881	37.93859
471.087	40.46019
471.292	40.79523
471.497	38.17097
471.703	39.02468
471.908	38.84862
472.113	39.49684
472.318	40.09565
472.523	38.64416
472.729	39.53656
472.934	39.45734
473.139	39.1157
473.344	39.41279
473.549	40.20025
473.754	38.24046
473.959	40.86059
474.164	38.48387
474.369	39.17902
474.575	39.96305
474.78	39.55382
474.985	38.8016
475.19	38.12141
475.395	38.94929
475.6	39.22
475.804	40.58572
476.009	39.54247
476.214	39.56229
476.419	39.12244
476.624	38.05967
476.829	38.78136
477.034	40.29622
477.239	39.16485
477.444	39.70927
477.648	40.10573
477.853	40.10689
478.058	39.52547
478.263	39.07606
478.468	38.84202
478.672	38.83789
478.877	40.87705
479.082	41.21824
479.287	39.92641
479.491	39.60838
479.696	38.83844
479.901	40.06525
480.105	40.27364
480.31	39.05611
480.515	39.81486
480.719	41.54063
480.924	39.30071
481.128	38.91798
481.333	39.88996
481.538	39.9852
481.742	39.37235
481.947	40.08107
482.151	41.88325
482.356	45.78338
482.56	53.63457
482.765	60.79753
482.969	71.2529
483.174	79.78745
483.378	90.07503
483.582	92.88432
483.787	96.31623
483.991	97.27604
484.196	96.72185
484.4	94.18419
484.604	90.99701
484.809	82.62337
485.013	75.19887
485.217	66.71467
485.422	59.55758
485.626	54.82052
485.83	53.48785
486.034	53.50282
486.239	55.98812
486.443	58.81536
486.647	61.68761
486.851	64.90298
487.055	69.20287
487.26	70.46861
487.464	73.04116
487.668	72.24819
487.872	73.06604
488.076	71.35589
488.28	68.20698
488.484	63.27783
488.688	60.27106
488.892	56.2723
489.096	51.74709
489.3	47.71853
489.504	44.7593
489.708	42.76872
489.912	42.28694
490.116	42.35475
490.32	43.90292
490.524	48.42562
490.728	51.86713
490.932	55.85566
491.136	59.14318
491.34	61.31116
491.544	61.70142
491.748	61.52143
491.951	60.69682
492.155	58.67181
492.359	55.68216
492.563	50.64182
492.767	46.02524
492.97	40.78906
493.174	39.44975
493.378	39.90016
493.582	39.61478
493.785	40.15903
493.989	40.50938
494.193	40.36519
494.396	40.14269
494.6	40.95988
494.804	40.25123
495.007	39.92687
495.211	39.99205
495.414	40.2253
495.618	40.74596
495.822	41.53352
496.025	40.60833
496.229	41.166
496.432	40.13317
496.636	40.54428
496.839	40.42822
497.043	42.16447
497.246	40.96396
497.45	40.4695
497.653	40.79009
497.856	41.02806
498.06	40.01629
498.263	40.58903
498.467	40.38949
498.67	41.33135
498.873	41.36518
499.077	40.53446
499.28	40.63323
499.483	41.15276
499.686	41.3742
499.89	40.94787
500.093	41.55833
500.296	40.43893
500.499	42.227
500.703	40.77666
500.906	41.24011
501.109	42.27681
501.312	40.57242
501.515	40.93386
501.719	41.43882
501.922	42.16853
502.125	41.2179
502.328	41.03106
502.531	40.02333
502.734	40.96139
502.937	39.59872
503.14	40.88291
503.343	40.32071
503.546	40.90758
503.749	40.22356
503.952	41.10535
504.155	40.37577
504.358	41.49489
504.561	41.49168
504.764	39.89694
504.967	41.38553
505.17	41.36782
505.373	42.41203
505.576	41.26753
505.778	41.44387
505.981	40.36322
506.184	41.9259
506.387	39.9415
506.59	42.5506
506.793	42.15404
506.995	41.61623
507.198	40.16875
507.401	41.65927
507.604	41.8625
507.806	40.52555
508.009	40.72679
508.212	41.91453
508.414	40.90165
508.617	40.93884
508.82	41.34174
509.022	42.75192
509.225	41.75738
509.427	40.3685
509.63	42.77479
509.833	41.29938
510.035	41.09675
510.238	40.36453
510.44	42.36099
510.643	39.78952
510.845	43.53135
511.048	41.93552
511.25	41.21314
511.453	41.2711
511.655	41.94854
511.858	41.11669
512.06	42.28172
512.262	41.55278
512.465	42.3756
512.667	41.27015
512.869	40.80722
513.072	41.81905
513.274	42.28364
513.476	42.20276
513.679	42.22329
513.881	40.95245
514.083	43.02203
514.286	41.05879
514.488	41.14697
514.69	40.87722
514.892	40.70074
515.094	42.42588
515.297	40.9661
515.499	41.66933
515.701	40.96892
515.903	42.924
516.105	43.11807
516.307	42.05781
516.509	40.2944
516.711	40.8868
516.913	41.88898
517.116	41.53575
517.318	41.47517
517.52	42.66809
517.722	42.32555
517.924	40.97893
518.126	42.41709
518.328	41.26703
518.529	42.32916
518.731	43.37694
518.933	41.501
519.135	41.86809
519.337	42.88196
519.539	42.16576
519.741	40.51739
519.943	41.94749
520.145	41.47413
520.346	42.52555
520.548	41.59721
520.75	42.09322
520.952	41.50953
521.153	42.23219
521.355	42.4885
521.557	41.06634
521.759	42.38655
521.96	41.964
522.162	41.24836
522.364	42.92633
522.565	41.31641
522.767	42.44416
522.969	42.8656
523.17	42.54658
523.372	42.16131
523.573	41.5595
523.775	41.55642
523.977	41.42177
524.178	43.36695
524.38	41.61891
524.581	42.8153
524.783	41.80421
524.984	42.86944
525.186	42.35965
525.387	42.67438
525.589	42.397
525.79	42.34412
525.991	42.02062
526.193	42.70686
526.394	41.47797
526.596	42.58037
526.797	42.43253
526.998	42.16243
527.2	45.05308
527.401	51.04421
527.602	56.81747
527.803	64.69567
528.005	69.54501
528.206	73.3598
528.407	76.06418
528.608	76.23516
528.81	76.08689
529.011	74.08405
529.212	73.37077
529.413	68.5809
529.614	62.46669
529.815	56.6628
530.017	51.41353
530.218	45.58691
530.419	42.02121
530.62	42.51589
530.821	42.59416
531.022	41.68145
531.223	42.89345
531.424	42.85792
531.625	42.39509
531.826	42.59197
532.027	42.75047
532.228	45.16679
532.429	47.55685
532.63	49.87655
532.831	52.47874
533.032	52.67049
533.233	53.7134
533.433	52.30995
533.634	52.41604
533.835	49.9663
534.036	47.49553
534.237	44.52132
534.438	42.30362
534.638	41.8594
534.839	41.93864
535.04	42.97957
535.241	42.37509
535.441	43.90304
535.642	42.98604
535.843	41.88372
536.043	42.19326
536.244	42.1966
536.445	42.60144
536.645	43.29528
536.846	43.10189
537.047	43.86586
537.247	42.34319
537.448	42.68946
537.648	42.99551
537.849	42.47075
538.049	42.58728
538.25	43.09001
538.451	42.95269
538.651	41.96529
538.851	43.08096
539.052	43.9325
539.252	43.60185
539.453	42.90088
539.653	43.27867
539.854	43.06371
540.054	42.96123
540.254	43.83122
540.455	47.84851
540.655	50.58836
540.855	54.89759
541.056	57.32534
541.256	57.23703
541.456	58.47275
541.657	57.67274
541.857	57.27997
542.057	54.31993
542.257	51.40037
542.458	49.38451
542.658	45.95229
542.858	42.42579
543.058	43.78322
543.258	43.25048
543.458	42.23955
543.659	42.06771
543.859	43.67056
544.059	43.51389
544.259	42.81697
544.459	43.83099
544.659	42.47133
544.859	43.1465
545.059	42.82557
545.259	43.70304
545.459	43.20872
545.659	43.86597
545.859	43.31458
546.059	43.43225
546.259	42.60153
546.459	42.03005
546.659	42.56187
546.859	43.84024
547.059	43.64
547.258	43.60495
547.458	43.62076
547.658	42.49142
547.858	42.16795
548.058	43.43762
548.258	42.8515
548.457	42.16821
548.657	45.5671
548.857	42.9309
549.057	43.91248
549.256	43.98107
549.456	43.0631
549.656	41.15793
549.855	45.25082
550.055	43.02623
550.255	44.98228
550.454	43.82253
550.654	44.24976
550.853	44.85641
551.053	44.38039
551.253	43.79309
551.452	43.9598
551.652	42.83249
551.851	42.18047
552.051	43.2998
552.25	42.77639
552.45	42.84654
552.649	43.16077
552.849	42.86756
553.048	43.44352
553.248	44.00072
553.447	42.58446
553.646	44.19495
553.846	44.76564
554.045	44.4999
554.244	42.09798
554.444	45.10546
554.643	42.85164
554.842	45.29304
555.042	45.64448
555.241	42.5431
555.44	42.65623
555.64	44.58668
555.839	45.97486
556.038	44.23642
556.237	42.81209
556.436	43.67809
556.636	43.99265
556.835	43.26017
557.034	45.73292
557.233	43.84426
557.432	42.03378
557.631	45.02482
557.83	43.41124
558.029	43.27326
558.228	42.73134
558.427	42.81387
558.626	44.15419
558.825	42.50791
559.024	43.4663
559.223	45.61755
559.422	43.47698
559.621	44.28681
559.82	41.07739
560.019	43.99345
560.218	43.51183
560.417	40.98321
560.616	43.25198
560.815	47.63753
561.014	42.2052
561.212	45.50747
561.411	43.85621
561.61	42.38125
561.809	43.45966
562.008	45.8526
562.206	43.86267
562.405	45.09471
562.604	43.58809
562.803	44.36247
563.001	43.84506
563.2	42.41018
563.399	44.73373
563.597	43.13347
563.796	43.84161
563.995	42.88511
564.193	44.51823
564.392	44.17337
564.59	46.87407
564.789	42.16621
564.988	43.44765
565.186	44.25955
565.385	44.09847
565.583	43.70723
565.782	44.15091
565.98	44.02268
566.179	44.08591
566.377	43.35322
566.575	43.16639
566.774	45.48403
566.972	45.25704
567.171	46.54591
567.369	45.5223
567.567	44.48293
567.766	44.76138
567.964	42.0825
568.162	45.03419
568.361	45.57289
568.559	43.96981
568.757	45.05537
568.956	44.53032
569.154	44.34426
569.352	45.40466
569.55	44.49996
569.748	44.7094
569.947	43.53126
570.145	43.92616
570.343	43.61163
570.541	45.70318
570.739	42.92609
570.937	44.68323
571.135	45.31549
571.333	46.50176
571.532	46.54693
571.73	44.94716
571.928	45.86844
572.126	44.70186
572.324	44.1184
572.522	46.0951
572.72	47.65604
572.918	44.6335
573.116	45.12519
573.313	44.45695
573.511	44.73255
573.709	44.15218
573.907	45.90702
574.105	44.68268
574.303	43.15
574.501	43.7705
574.699	45.36785
574.896	45.52169
575.094	45.24455
575.292	43.27538
575.49	45.54514
575.688	44.31635
575.885	46.25555
576.083	47.1871
576.281	44.93827
576.478	44.08155
576.676	45.74613
576.874	42.87438
577.071	44.67191
577.269	47.71582
577.467	44.6406
577.664	44.84227
577.862	46.1066
578.059	43.75001
578.257	45.8974
578.455	44.3738
578.652	44.41782
578.85	42.01446
579.047	45.0884
579.245	44.23156
579.442	44.65086
579.64	44.45741
579.837	41.98402
580.034	48.2663
580.232	44.16326
580.429	42.48421
580.627	45.5541
580.824	46.36395
581.021	45.47777
581.219	44.41258
581.416	43.69384
581.613	46.77971
581.811	46.82415
582.008	43.75533
582.205	46.23436
582.402	45.08159
582.6	46.58441
582.797	44.59046
582.994	45.36801
583.191	45.88268
583.388	45.02621
583.586	46.34889
583.783	46.27301
583.98	43.62577
584.177	45.23108
584.374	41.14845
584.571	44.59851
584.768	44.7097
584.965	44.55516
585.162	45.8185
585.359	47.53833
585.556	44.94887
585.753	45.33447
585.95	42.78636
586.147	44.16858
586.344	45.76083
586.541	44.79654
586.738	43.23483
586.935	44.70893
587.132	43.70484
587.329	46.68829
587.526	44.90552
587.722	51.87087
587.919	43.15787
588.116	45.85451
588.313	47.09465
588.51	48.39611
588.706	44.87028
588.903	46.2713
589.1	46.78962
589.297	48.94148
589.493	45.22776
589.69	46.02742
589.887	44.3691
590.083	43.21207
590.28	43.89254
590.477	46.25411
590.673	46.36652
590.87	47.04664
591.067	44.31945
591.263	45.58902
591.46	45.70467
591.656	44.52187
591.853	46.43353
592.049	43.84725
592.246	44.16103
592.442	47.04224
592.639	46.73767
592.835	44.32074
593.032	45.46074
593.228	42.9122
593.425	43.13046
593.621	42.79657
593.817	45.61551
594.014	43.88641
594.21	45.00681
594.406	46.30376
594.603	45.94698
594.799	43.96957
594.995	41.83915
595.192	46.95274
595.388	44.4621
595.584	44.67554
595.78	43.4955
595.977	48.32338
596.173	47.68499
596.369	45.09114
596.565	43.84147
596.761	43.3336
596.957	46.864
597.154	44.16356
597.35	44.83801
597.546	44.44255
597.742	46.69745
597.938	45.78471
598.134	44.05446
598.33	45.37338
598.526	47.76724
598.722	45.49595
598.918	48.0846
599.114	46.19684
599.31	43.82095
599.506	45.76954
599.702	44.2216
599.898	45.6957
600.094	46.93953
600.29	46.82507
600.485	46.72401
600.681	44.64062
600.877	48.74654
601.073	44.98255
601.269	48.14068
601.465	47.58434
601.66	43.82616
601.856	42.98895
602.052	47.93794
602.248	44.69574
602.443	42.74782
602.639	43.6695
602.835	44.69632
603.03	44.36414
603.226	47.01033
603.422	44.55169
603.617	44.80939
603.813	44.99481
604.009	44.67671
604.204	47.2535
604.4	43.08178
604.595	46.92279
604.791	43.98259
604.986	45.9818
605.182	44.18177
605.377	45.16342
605.573	44.45878
605.768	45.41636
605.964	46.28373
606.159	46.50606
606.355	47.39821
606.55	44.6974
606.746	47.47792
606.941	45.31618
607.136	49.20071
607.332	49.77416
607.527	43.91207
607.722	46.18437
607.918	45.77825
608.113	44.74426
608.308	47.07666
608.503	46.46989
608.699	46.50971
608.894	45.89487
609.089	44.51212
609.284	45.90558
609.479	45.23853
609.675	46.61925
609.87	44.90049
610.065	47.00627
610.26	46.61832
610.455	46.49503
610.65	45.10066
610.845	45.45347
611.04	47.39317
611.235	45.25484
611.43	44.6114
611.625	43.49915
611.82	47.85199
612.015	44.24999
612.21	47.70536
612.405	42.50934
612.6	48.94335
612.795	47.68502
612.99	46.29875
613.185	43.17235
613.38	43.73735
613.575	45.45722
613.77	50.7999
613.965	42.61817
614.159	43.62865
614.354	47.83724
614.549	47.39747
614.744	46.86611
614.938	43.92093
615.133	42.67416
615.328	48.40835
615.523	47.55001
615.717	51.0751
615.912	44.27907
616.107	45.56488
616.301	45.2027
616.496	44.63133
616.691	48.66654
616.885	47.39103
617.08	51.89165
617.274	47.45334
617.469	49.49718
617.664	47.04767
617.858	44.89372
618.053	46.79658
618.247	45.61902
618.442	41.57602
618.636	48.86
618.831	44.54775
619.025	44.86999
619.219	50.93117
619.414	39.47976
619.608	45.21423
619.803	44.63729
619.997	49.71365
620.191	48.01313
620.386	46.57422
620.58	45.75723
620.774	42.45711
620.969	43.08976
621.163	46.12989
621.357	44.26604
621.551	45.33692
621.746	45.70625
621.94	44.96598
622.134	52.34879
622.328	50.00201
622.522	41.93797
622.716	47.09665
622.911	48.13214
623.105	47.62752
623.299	46.60463
623.493	52.41015
623.687	44.25832
623.881	44.56116
624.075	46.33341
624.269	48.53964
624.463	42.06886
624.657	42.39514
624.851	47.93143
625.045	48.36775
625.239	48.539
625.433	45.32611
625.627	49.2337
625.821	45.32046
626.015	45.04844
626.209	46.70192
626.403	44.51032
626.596	47.23139
626.79	48.02921
626.984	43.8806
627.178	47.36444
627.372	47.01072
627.565	47.50269
627.759	43.35979
627.953	43.50123
628.147	46.89113
628.34	47.0716
628.534	50.7412
628.728	45.4765
628.921	47.91659
629.115	47.05988
629.309	48.25395
629.502	48.26987
629.696	46.57582
629.89	45.96631
630.083	46.16559
630.277	47.02049
630.47	50.01247
630.664	45.46792
630.857	42.65687
631.051	47.80221
631.244	48.78526
631.438	47.08669
631.631	43.77469
631.825	49.47824
632.018	47.86376
632.212	49.79258
632.405	49.13211
632.598	44.35438
632.792	46.31266
632.985	41.19688
633.178	45.60437
633.372	46.16657
633.565	46.11453
633.758	49.24928
633.952	44.7418
634.145	44.42315
634.338	45.13736
634.531	45.57468
634.724	44.8232
634.918	46.91173
635.111	45.78841
635.304	45.16769
635.497	52.24109
635.69	47.13692
635.883	49.44206
636.077	43.54972
636.27	47.74459
636.463	46.35416
636.656	46.56209
636.849	45.59974
637.042	47.49761
637.235	49.45509
637.428	48.23082
637.621	46.81597
637.814	49.61251
638.007	50.01747
638.2	49.75426
638.393	50.91931
638.586	43.14388
638.778	44.97546
638.971	46.33274
639.164	49.42746
639.357	46.7296
639.55	50.13353
639.743	48.40377
639.935	47.8676
640.128	51.26426
640.321	48.83442
640.514	46.53244
640.707	53.01343
640.899	48.77995
641.092	42.32722
641.285	68.03195
641.477	41.40117
641.67	52.86248
641.863	50.54
642.055	47.34863
642.248	46.68654
642.441	45.76425
642.633	48.61785
642.826	49.00083
643.018	50.45595
643.211	52.61137
643.403	51.1536
643.596	53.06415
643.788	51.89051
643.981	46.7249
644.173	49.44238
644.366	46.67398
644.558	42.23224
644.751	50.61273
644.943	43.15596
645.135	51.84815
645.328	52.13114
645.52	48.90668
645.712	50.29718
645.905	56.27745
646.097	44.28519
646.289	47.55741
646.482	53.1733
646.674	45.32289
646.866	51.006
647.058	48.72553
647.251	44.17798
647.443	45.65034
647.635	47.51934
647.827	43.68867
648.019	44.54103
648.211	47.65274
648.404	46.90881
648.596	51.53963
648.788	47.99458
648.98	48.1894
649.172	47.92645
649.364	48.56515
649.556	42.514
649.748	55.86529
649.94	44.86771
650.132	49.08656
650.324	45.0756
650.516	45.58876
650.708	50.98381
650.9	43.85238
651.092	46.24581
651.284	43.7718
651.476	44.7575
651.667	49.9293
651.859	51.63997
652.051	47.49048
652.243	48.14336
652.435	46.49856
652.627	49.60069
652.818	49.53906
653.01	43.29244
653.202	45.39466
653.394	46.95325
653.585	49.57708
653.777	61.78415
653.969	51.67422
654.16	51.07943
654.352	44.05232
654.544	46.42687
654.735	50.26877
654.927	48.04588
655.118	52.54131
655.31	49.79631
655.502	52.32318
655.693	47.12722
655.885	49.66652
656.076	52.50815
656.268	49.28617
656.459	52.17836
656.651	52.60632
656.842	47.07588
657.034	46.01413
657.225	51.27516
657.416	53.2559
657.608	52.60873
657.799	48.36941
657.99	52.21284
658.182	47.47277
658.373	46.95891
658.564	50.86389
658.756	49.28089
658.947	48.77025
659.138	46.16132
659.33	47.05148
659.521	46.90927
659.712	48.21414
659.903	48.49878
660.094	47.28969
660.286	44.28933
660.477	54.41782
660.668	50.59916
660.859	48.80064
661.05	44.06421
661.241	50.69241
661.432	50.7513
661.623	47.87371
661.814	46.2946
662.006	43.47847
662.197	50.55625
662.388	52.53625
662.579	49.17741
662.77	57.80031
662.96	57.76066
663.151	50.97918
663.342	42.05376
663.533	51.45654
663.724	48.10448
663.915	54.49575
664.106	47.58133
664.297	54.43175
664.488	50.70659
664.678	46.41763
664.869	51.14875
665.06	51.93214
665.251	50.0664
665.442	50.5844
665.632	44.59889
665.823	55.84202
666.014	38.55542
666.204	51.18481
666.395	54.41345
666.586	58.74823
666.776	51.72411
666.967	55.57803
667.158	49.42073
667.348	54.17318
667.539	45.57706
667.729	51.97377
667.92	45.57554
668.111	52.5135
668.301	50.93316
668.492	48.44372
668.682	49.69557
668.873	48.6919
669.063	44.95427
669.253	50.11788
669.444	53.07944
669.634	48.81234
669.825	56.48845
670.015	53.17944
670.206	46.20917
670.396	57.81335
670.586	49.25901
670.777	51.65431
670.967	41.58311
671.157	48.04401
671.347	46.63404
671.538	54.66795
671.728	51.36745
671.918	57.35667
672.108	54.08834
672.299	48.84959
672.489	51.94476
672.679	47.57937
672.869	50.86681
673.059	57.75441
673.249	51.89459
673.44	46.64803
673.63	49.98828
673.82	53.2207
674.01	47.29667
674.2	51.47229
674.39	62.8885
674.58	53.57352
674.77	49.46996
674.96	49.07733
675.15	66.11466
675.34	54.57914
675.53	50.0022
675.72	50.06431
675.91	44.55931
676.099	58.80447
676.289	58.14475
676.479	55.1336
676.669	48.60411
676.859	51.06933
677.049	46.55003
677.238	50.42862
677.428	57.56382
677.618	52.64537
677.808	55.54599
677.997	53.1325
678.187	46.3352
678.377	50.54828
678.567	49.47377
678.756	49.2623
678.946	50.32965
679.136	44.78389
679.325	48.38141
679.515	46.85492
679.704	46.55358
679.894	53.69119
680.084	51.7789
680.273	55.98612
680.463	48.02891
680.652	48.07913
680.842	50.34247
681.031	55.05836
681.221	48.43902
681.41	53.74221
681.6	50.89831
681.789	54.19675
681.978	57.20538
682.168	51.69708
682.357	51.90973
682.547	54.1925
682.736	52.22936
682.925	56.48729
683.115	55.9959
683.304	55.23636
683.493	54.04379
683.682	53.44967
683.872	53.48854
684.061	56.65801
684.25	54.38579
684.439	59.36725
684.629	55.5986
684.818	65.81945
685.007	51.59234
685.196	50.61223
685.385	58.91472
685.574	53.74754
685.763	54.59585
685.952	52.14367
686.142	46.3912
686.331	59.47334
686.52	43.11842
686.709	60.00909
686.898	59.07411
687.087	55.18007
687.276	60.43271
687.465	57.05387
687.654	51.23543
687.842	60.78639
688.031	47.98486
688.22	59.4779
688.409	53.69386
688.598	54.01453
688.787	64.89221
688.976	53.39362
689.165	61.72958
689.353	51.23452
689.542	55.30604
689.731	57.49541
689.92	63.28953
690.108	58.71033
690.297	51.89421
690.486	54.23313
690.675	58.75619
690.863	63.23413
691.052	62.39263
691.241	55.65773
691.429	56.54245
691.618	61.9087
691.806	49.44168
691.995	53.69414
692.184	54.89708
692.372	52.62457
692.561	56.7554
692.749	55.51948
692.938	68.25902
693.126	57.21418
693.315	52.10628
693.503	58.25281
693.692	58.99672
693.88	60.72648
694.068	66.39933
694.257	54.73037
694.445	57.2663
694.634	45.32907
694.822	61.51385
695.01	62.80107
695.199	62.92449
695.387	63.6646
695.575	62.85502
695.763	55.9208
695.952	52.62505
696.14	49.38131
696.328	53.65627
696.516	55.59305
696.705	58.38581
696.893	56.76593
697.081	47.20107
697.269	59.09445
697.457	50.75051
697.645	49.5595
697.833	58.75485
698.021	51.2495
698.21	53.21504
698.398	54.42571
698.586	49.58163
698.774	48.77705
698.962	53.66109
699.15	51.2127
699.338	48.24622
699.526	57.4472
699.714	52.49527
699.901	53.78907
700.089	60.86465
700.277	52.72701
700.465	55.58557
700.653	59.98391
700.841	58.90987
701.029	53.0209
701.217	64.38182
701.404	57.50321
701.592	66.30358
701.78	67.5922
701.968	55.97071
702.155	56.39333
702.343	50.20692
702.531	63.58307
702.718	59.66207
702.906	55.64239
703.094	54.21357
703.281	64.35603
703.469	57.8106
703.657	63.95942
703.844	76.8891
704.032	68.39344
704.219	53.45429
704.407	59.73948
704.595	65.49182
704.782	57.22317
704.97	54.96069
705.157	54.93365
705.345	66.64316
705.532	74.58677
705.719	60.49727
705.907	64.99309
706.094	59.58071
706.282	68.87511
706.469	56.40926
706.656	60.345
706.844	57.04625
707.031	65.81625
707.218	59.27727
707.406	69.51046
707.593	63.12905
707.78	64.43433
707.968	58.95831
708.155	54.37411
708.342	62.80637
708.529	62.67059
708.716	60.44545
708.904	69.78887
709.091	64.79716
709.278	53.68917
709.465	74.82731
709.652	71.42426
709.839	69.98956
710.026	61.8588
710.213	50.33226
710.4	62.8036
710.587	65.12406
710.774	67.25533
710.961	67.10262
711.148	60.23465
711.335	67.68568
711.522	59.37424
711.709	62.25389
711.896	74.01488
712.083	65.58462
712.27	56.43041
712.457	62.65287
712.644	52.2432
712.831	73.04971
713.017	62.0017
713.204	65.81027
713.391	58.16736
713.578	70.24612
713.765	70.04681
713.951	65.31447
714.138	82.93668
714.325	66.47261
714.512	62.56363
714.698	57.16485
714.885	73.1732
715.072	63.39726
715.258	62.37631
715.445	58.49332
715.631	71.98932
715.818	46.66403
716.005	58.82638
716.191	66.28691
716.378	61.2268
716.564	69.17963
716.751	57.21396
716.937	60.2212
717.124	70.98647
717.31	58.68412
717.497	73.06602
717.683	57.87769
717.869	82.30802
718.056	60.34853
718.242	67.30257
718.429	62.84395
718.615	56.1722
718.801	65.13022
718.988	70.51231
719.174	67.42891
719.36	63.89521
719.547	73.75033
719.733	66.0631
719.919	69.85065
720.105	69.20275
720.291	63.54692
720.478	66.34012
720.664	66.05721
720.85	62.54095
721.036	87.73475
721.222	76.79913
721.408	65.39025
721.595	82.22278
721.781	78.7714
721.967	73.92839
722.153	79.67877
722.339	70.77575
722.525	68.41817
722.711	57.84729
722.897	57.35652
723.083	62.04486
723.269	73.18622
723.455	86.06766
723.641	90.90686
723.827	69.35688
724.012	70.56461
724.198	63.77979
724.384	78.74949
724.57	72.28028
724.756	54.1091
724.942	51.89829
725.127	75.17364
725.313	79.04718
725.499	76.85389
725.685	81.44556
725.87	70.15603
726.056	60.67645
726.242	81.47742
726.428	54.37485
726.613	76.01676
726.799	64.1242
726.985	58.1022
727.17	53.6499
727.356	80.71759
727.541	59.20226
727.727	65.53248
727.913	73.27595
728.098	63.17135
728.284	74.59577
728.469	58.23687
728.655	60.5377
728.84	74.44871
729.026	75.55212
729.211	73.33033
729.397	70.17413
729.582	74.32684
729.767	69.12705
729.953	69.92711
730.138	76.57326
730.323	50.6585
730.509	60.1261
730.694	82.92823
730.879	73.29529
731.065	67.97452
731.25	86.76026
731.435	74.00325
731.621	55.45711
731.806	62.74722
731.991	69.96273
732.176	56.24324
732.361	80.9782
732.547	68.55391
732.732	54.77274
732.917	88.59436
733.102	58.05972
733.287	62.1787
733.472	67.2732
733.657	69.70335
733.842	55.29109
734.027	65.71927
734.212	70.00976
734.397	62.27436
734.582	71.33539
734.767	78.74227
734.952	82.90272
735.137	47.02578
735.322	84.16226
735.507	73.74263
735.692	72.73977
735.877	90.92091
736.062	86.26773
736.247	76.14008
736.431	68.20203
736.616	79.26801
736.801	73.08363
736.986	69.7169
737.171	61.89707
737.355	55.94467
737.54	81.74049
737.725	70.87307
737.909	94.70374
738.094	62.85107
738.279	80.67054
738.463	66.0904
738.648	76.27241
738.833	74.49617
739.017	88.85429
739.202	65.25821
739.386	69.21091
739.571	59.50191
739.756	75.6532
739.94	68.87082
740.125	78.87535
740.309	62.35954
740.494	78.39935
740.678	71.70975
740.863	75.49663
741.047	71.59479
741.231	83.25877
741.416	63.20639
741.6	91.16385
741.785	64.49758
741.969	78.83397
742.153	85.25439
742.338	53.1741
742.522	70.86792
742.706	78.46853
742.89	59.51611
743.075	73.2678
743.259	90.06808
743.443	81.89652
743.627	85.19955
743.812	98.54463
743.996	55.32589
744.18	68.26742
744.364	67.91973
744.548	100.45181
744.732	70.41031
744.916	83.50843
745.1	81.68358
745.285	68.77164
745.469	77.04504
745.653	93.66766
745.837	57.45927
746.021	100.22935
746.205	86.94789
746.389	75.54779
746.573	69.75498
746.757	92.65107
746.94	69.446
747.124	86.39668
747.308	60.85368
747.492	87.64976
747.676	66.36623
747.86	101.88168
748.044	67.81907
748.227	54.30132
748.411	114.93095
748.595	76.48095
748.779	63.24632
748.963	79.43751
749.146	75.24763
749.33	64.10705
749.514	63.0093
749.697	90.01241
749.881	67.08619
750.065	64.24535
750.248	74.38684
750.432	103.02842
750.616	74.07724
750.799	62.46918
750.983	98.11674
751.166	105.48244
751.35	55.28931
751.533	83.47737
751.717	92.17775
751.9	94.86203
752.084	72.61138
752.267	64.00351
752.451	68.31183
752.634	77.123
752.818	80.9511
753.001	84.26851
753.184	86.23696
753.368	79.04318
753.551	37.00018
753.734	67.51614
753.918	97.38241
754.101	66.74809
754.284	82.76359
754.467	69.00754
754.651	68.4318
754.834	65.78715
755.017	88.6077
755.2	89.44727
755.384	63.92098
755.567	85.78543
755.75	88.53813
755.933	72.29557
756.116	77.95319
756.299	70.3827
756.482	64.75472
756.665	79.7339
756.848	74.36641
757.032	79.98776
757.215	57.22498
757.398	63.80682
757.581	66.47947
757.764	110.3207
757.947	74.12545
758.129	91.84007
758.312	45.26004
758.495	73.37024
758.678	75.18419
758.861	68.74163
759.044	99.3053
759.227	65.41041
759.41	66.62746
759.592	84.43351
759.775	74.3135
759.958	89.51961
760.141	61.17603
760.324	110.2236
760.506	96.9141
760.689	91.04917
760.872	107.11469
761.054	83.96096
761.237	71.38349
761.42	80.47982
761.602	89.54289
761.785	81.87773
761.968	89.00242
762.15	98.78641
762.333	72.31824
762.515	79.0968
762.698	68.92951
762.88	82.84992
763.063	76.47678
763.245	79.57089
763.428	60.51686
763.61	66.00014
763.793	57.39016
763.975	74.31208
764.158	68.73839
764.34	67.82988
764.522	64.22767
764.705	72.94293
764.887	91.36688
765.069	58.18267
765.252	84.29757
765.434	88.12804
765.616	76.93504
765.799	70.81892
765.981	86.24309
766.163	70.73052
766.345	91.41353
766.528	69.72961
766.71	48.99859
766.892	78.3047
767.074	93.49209
767.256	77.37057
767.438	103.88658
767.62	83.64563
767.802	108.15175
767.985	87.61979
768.167	107.37476
768.349	72.91236
768.531	88.46235
768.713	83.90932
768.895	87.29828
769.077	82.01037
769.259	118.49104
769.441	151.61056
769.623	93.59872
769.804	104.82539
769.986	103.17842
770.168	120.85085
770.35	138.03096
770.532	105.70929
770.714	116.22196
770.896	114.59628
771.077	68.72265
771.259	120.78523
771.441	103.71735
771.623	128.23995
771.804	142.77037
771.986	65.50897
772.168	86.00258
772.35	126.59357
772.531	154.9136
772.713	96.55844
772.894	126.97804
773.076	97.16819
773.258	89.90119
773.439	130.81623
773.621	140.80363
773.802	79.40772
773.984	89.49707
774.166	108.25689
774.347	132.85022
774.529	125.128
774.71	59.99935
774.891	95.32847
775.073	87.14178
775.254	132.45873
775.436	87.44178
775.617	142.58018
775.799	90.27609
775.98	136.27993
776.161	139.66103
776.343	144.97704
776.524	97.67689
776.705	90.89543
776.886	63.23961
777.068	110.52376
777.249	163.54742
777.43	156.54312
777.611	75.8262
777.793	93.44064
777.974	140.92365
778.155	92.16066
778.336	82.61394
778.517	152.04486
778.698	83.49936
778.879	64.05054
779.061	45.51696
779.242	111.36757
779.423	111.76611
779.604	92.32866
779.785	98.76087
779.966	105.06654
780.147	127.72197
780.328	129.90322
780.509	167.1844
780.69	116.57357
780.871	83.05148
781.051	73.41945
781.232	108.91442
781.413	104.22221
781.594	96.28927
781.775	90.765
781.956	87.04299
782.137	59.24366
782.317	87.07464
782.498	109.89588
782.679	100.74709
782.86	104.65817
783.04	87.81815
783.221	111.16208
783.402	148.51178
783.583	105.36779
783.763	118.43498
783.944	94.04397
784.124	68.65213
784.305	145.12249
784.486	112.12186
784.666	100.82269
784.847	69.16797
785.027	167.89892
785.208	88.08799
785.388	90.245
785.569	93.3503
785.749	96.25404
785.93	91.85228
786.11	70.28982
786.291	116.26342
786.471	102.15071
786.652	122.38266
786.832	96.62553
787.012	109.00178
787.193	76.59102
787.373	105.31371
787.553	87.62907
787.734	109.11806
787.914	93.28087
788.094	112.73859
788.275	109.30311
788.455	92.63706
788.635	72.56181
788.815	103.94257
788.995	77.55087
789.176	66.38222
789.356	85.01454
789.536	96.85881
789.716	111.90636
789.896	86.73415
790.076	92.89777
790.256	103.64906
790.436	53.25103
790.616	84.55911
790.796	106.18921
790.976	91.37754
791.156	84.85247
791.336	127.68436
791.516	111.05607
791.696	98.308
791.876	71.60923
792.056	103.22042
792.236	119.62724
792.416	114.27585
792.596	109.2849
792.776	110.22762
792.956	115.58578
793.135	139.10037
793.315	78.98203
793.495	134.14678
793.675	115.99321
793.854	121.64977
794.034	125.22481
794.214	75.10933
794.394	114.64606
794.573	133.96636
794.753	102.19165
794.933	80.61514
795.112	105.31499
795.292	118.26032
795.472	145.47817
795.651	69.61938
795.831	97.38665
796.01	94.42555
796.19	96.43558
796.369	103.8248
796.549	113.68242
796.728	96.21389
796.908	70.93217
797.087	78.90568
797.267	90.62385
797.446	79.21182
797.626	113.04285
797.805	112.74339
797.984	84.39093
798.164	119.5473
798.343	77.933
798.522	106.50422
798.702	103.87366
798.881	74.23108
799.06	96.95245
799.239	59.38357
799.419	81.90902
799.598	140.80017
799.777	112.22061
799.956	132.99121
800.136	89.93266
800.315	86.61679
800.494	112.178
800.673	125.92925
800.852	116.50171
801.031	126.58224
801.21	115.72522
801.389	93.59006
801.568	102.84216
801.747	151.33363
801.926	103.12088
802.105	146.00606
802.284	91.35111
802.463	139.83732
802.642	109.38434
802.821	103.62075
803	137.05116
803.179	121.56007
803.358	134.29041
803.537	91.2367
803.716	101.3906
803.895	86.76801
804.073	98.09411
804.252	83.31186
804.431	111.73583
804.61	96.80766
804.789	130.08045
804.967	93.84294
805.146	92.06217
805.325	148.60492
805.503	118.44314
805.682	70.12686
805.861	167.4976
806.039	132.82211
806.218	90.84976
806.397	106.4683
806.575	105.13859
806.754	111.84559
806.932	81.07191
807.111	134.89013
807.289	126.23737
807.468	104.26476
807.646	131.55997
807.825	119.70561
808.003	109.31881
808.182	128.41876
808.36	111.06
808.539	86.09473
808.717	140.9343
808.895	89.04194
809.074	111.72692
809.252	104.65826
809.43	120.59835
809.609	131.87684
809.787	150.78833
809.965	106.73601
810.144	106.75414
810.322	108.08881
810.5	114.96957
810.678	97.54538
810.856	167.50212
811.035	137.77781
811.213	127.69264
811.391	140.78482
811.569	115.48609
811.747	187.84268
811.925	138.04046
812.103	86.86998
812.281	100.7853
812.459	154.15063
812.637	159.86692
812.816	128.02465
812.994	160.3628
813.171	137.39474
813.349	118.9962
813.527	140.30873
813.705	154.95077
813.883	181.18768
814.061	138.1166
814.239	158.10712
814.417	169.25071
814.595	123.57904
814.773	115.41813
814.95	118.15467
815.128	121.80828
815.306	115.21936
815.484	105.29039
815.662	89.35893
815.839	77.02235
816.017	88.94044
816.195	135.28879
816.372	101.9489
816.55	127.80637
816.728	151.32245
816.905	108.67936
817.083	162.03145
817.261	110.15169
817.438	170.95647
817.616	166.82021
817.793	95.99738
817.971	135.07027
818.148	132.2144
818.326	150.15831
818.503	119.11679
818.681	149.63668
818.858	96.90094
819.036	108.77461
819.213	114.71012
819.391	92.19718
819.568	87.36004
819.745	88.07992
819.923	129.73293
820.1	91.15879
820.277	88.02086
820.455	98.50021
820.632	97.93595
820.809	99.56301
820.986	76.25689
821.164	67.75973
821.341	62.05327
821.518	73.9026
821.695	62.46383
821.872	61.31963
822.05	56.37319
822.227	51.21217
822.404	52.77457
822.581	56.89843
822.758	53.39694
822.935	53.64618
823.112	57.94069
823.289	53.099
823.466	59.42382
823.643	58.74029
823.82	65.15178
823.997	62.81181
824.174	71.25781
824.351	84.08337
824.528	80.43632
824.705	79.15635
824.882	83.1715
825.059	97.08756
825.236	78.32934
825.412	77.9993
825.589	87.25574
825.766	107.514
825.943	79.69301
826.12	85.16397
826.296	68.56984
826.473	76.89685
826.65	77.01656
826.827	84.98211
827.003	66.57536
827.18	70.18014
827.357	77.58911
827.533	71.89823
827.71	54.92491
827.887	67.23004
828.063	74.46024
828.24	68.6466
828.416	83.01324
828.593	74.64118
828.769	97.50486
828.946	106.50306
829.122	111.46708
829.299	102.21429
829.475	76.92331
829.652	104.33544
829.828	150.68083
830.005	104.38412
830.181	131.18174
830.357	100.17689
830.534	136.42819
830.71	99.80352
830.886	125.87148
831.063	128.24503
831.239	142.62731
831.415	87.43832
831.592	146.69468
831.768	107.78704
831.944	91.92576
832.12	139.63986
832.296	133.72084
832.473	121.94031
832.649	92.13705
832.825	116.47719
833.001	77.84141
833.177	103.7855
833.353	92.4347
833.529	66.99577
833.705	83.47033
833.881	68.69544
834.058	69.59585
834.234	76.09946
834.41	73.13464
834.586	65.99385
834.761	74.63813
834.937	78.87909
835.113	83.91679
835.289	78.38771
835.465	92.92882
835.641	84.29468
835.817	93.60478
835.993	142.6776
836.169	85.4311
836.344	111.12159
836.52	123.42209
836.696	123.29815
836.872	90.33806
837.048	203.53139
837.223	108.03855
837.399	179.13518
837.575	139.94043
837.75	137.02475
837.926	166.90696
838.102	244.48671
838.277	209.77587
838.453	239.30079
838.628	230.20647
838.804	121.54235
838.98	239.88219
839.155	121.53652
839.331	156.73234
839.506	118.65442
839.682	129.37333
839.857	145.97668
840.033	163.23215
840.208	100.11816
840.384	62.18288
840.559	101.24761
840.734	141.43679
840.91	183.9654
841.085	127.60001
841.26	125.38105
841.436	119.76135
841.611	121.7193
841.786	178.94978
841.962	209.09572
842.137	140.64921
842.312	101.44893
842.487	128.01929
842.663	105.97329
842.838	127.39705
843.013	316.14995
843.188	172.35175
843.363	154.3398
843.538	296.72508
843.714	288.59336
843.889	293.82833
844.064	289.06732
844.239	262.43141
844.414	298.75831
844.589	219.2911
844.764	331.70517
844.939	313.73862
845.114	422.18101
845.289	344.40952
845.464	385.42359
845.639	316.51793
845.814	200.09617
845.989	194.84978
846.163	213.08457
846.338	259.92908
846.513	358.58315
846.688	253.60027
846.863	245.3347
847.038	210.80689
847.212	241.98913
847.387	258.93337
847.562	263.78286
847.737	271.21521
847.911	136.64759
848.086	176.42062
848.261	484.13974
848.435	223.0732
848.61	337.71132
848.785	166.34362
848.959	293.40052
849.134	401.06629
849.308	522.97466
849.483	257.54941
849.658	363.2573
849.832	236.94142
850.007	212.5404
850.181	430.04034
850.356	205.99233
850.53	398.9439
850.705	178.79369
850.879	115.48957
851.053	271.69329
851.228	204.96985
851.402	296.3679
851.577	360.51995
851.751	339.7618
851.925	256.06634
852.099	128.8518
852.274	199.6001
852.448	242.07091
852.622	307.32721
852.797	261.00879
852.971	247.93407
853.145	298.10286
853.319	480.15135
853.493	359.12712
853.668	221.97609
853.842	412.59199
854.016	347.57979
854.19	445.70666
854.364	288.28378
854.538	282.37266
854.712	375.86253
854.886	271.41407
855.06	227.99016
855.234	105.35088
855.408	410.63871
855.582	359.70519
855.756	355.8054
855.93	423.51076
856.104	296.15322
856.278	353.81335
856.452	253.82598
856.626	298.17043
856.8	470.80244
856.973	325.62666
857.147	282.6039
857.321	292.07134
857.495	375.59577
857.669	255.21367
857.842	231.97377
858.016	411.00312
858.19	184.26061
858.364	618.98677
858.537	241.07093
858.711	268.34979
858.885	211.53969
859.058	197.85313
859.232	139.24213
859.405	164.16145
859.579	359.58002
859.753	280.3111
859.926	202.33935
860.1	152.86409
860.273	250.16615
860.447	434.30608
860.62	230.10766
860.794	447.30548
860.967	282.89364
861.141	385.66342
861.314	488.50821
861.487	309.97255
861.661	395.60605
861.834	441.79078
862.008	337.97391
862.181	292.53275
862.354	279.62458
862.528	314.77051
862.701	195.04112
862.874	156.55947
863.047	231.09415
863.221	247.39997
863.394	120.50173
863.567	372.61356
863.74	108.43409
863.913	375.97164
864.087	315.56873
864.26	333.08809
864.433	244.54426
864.606	507.6797
864.779	267.60659
864.952	147.74918
865.125	226.72439
865.298	246.87543
865.471	273.07488
865.644	416.89273
865.817	370.6863
865.99	332.1854
866.163	401.82999
866.336	215.29697
866.509	258.65397
866.682	215.7289
866.855	368.98546
867.028	167.61968
867.2	325.99431
867.373	115.89196
867.546	289.07051
867.719	440.94802
867.892	285.58059
868.064	190.11918
868.237	285.04019
868.41	284.38902
868.583	175.23852
868.755	168.28173
868.928	226.12542
869.101	468.04077
869.273	343.68642
869.446	306.13625
869.619	368.86268
869.791	239.4382
869.964	371.48273
870.136	321.92325
870.309	285.49699
870.481	272.89678
870.654	153.17901
870.826	278.43346
870.999	240.30667
871.171	319.85967
871.344	213.70672
871.516	252.47525
871.689	182.44856
871.861	264.42871
872.033	202.89927
872.206	252.80613
872.378	341.69444
872.55	248.99823
872.723	151.5722
872.895	216.89901
873.067	375.57805
873.24	339.73276
873.412	215.26751
873.584	243.17918
873.756	226.83844
873.928	276.59026
874.101	278.31004
874.273	286.41229
874.445	121.54581
874.617	168.83054
874.789	265.28273
874.961	233.17151
875.133	291.88407
875.305	267.0463
875.477	176.69404
875.649	149.69367
875.821	186.75727
875.993	379.57253
876.165	177.98865
876.337	239.67358
876.509	244.10467
876.681	271.24764
876.853	288.82064
877.025	279.31784
877.197	197.96618
877.369	168.73441
877.541	315.98208
877.712	115.3811
877.884	164.03335
878.056	275.72973
878.228	161.09384
878.4	292.12738
878.571	167.47358
878.743	120.56304
878.915	231.81238
879.086	163.03326
879.258	194.89099
879.43	164.57985
879.601	148.16392
879.773	152.12226
879.945	59.50979
880.116	77.14729
880.288	60.57842
880.459	65.37319
880.631	55.94767
880.802	61.04737
880.974	60.93838
881.145	51.37302
881.317	59.27971
881.488	52.6944
881.66	57.01476
881.831	53.30408
882.002	64.24194
882.174	56.38202
882.345	64.10533
882.517	51.13301
882.688	76.31487
882.859	68.3199
883.03	91.71756
883.202	91.86417
883.373	86.68521
883.544	84.48938
883.715	122.3289
883.887	110.16361
884.058	98.05725
884.229	126.27224
884.4	123.07768
884.571	141.16939
884.742	122.28755
884.914	128.34323
885.085	161.67311
885.256	210.22626
885.427	175.91526
885.598	187.31319
885.769	196.35316
885.94	201.89688
886.111	151.08221
886.282	229.73028
886.453	176.09442
886.624	141.28004
886.795	227.09829
886.966	179.44391
887.136	241.00394
887.307	162.24694
887.478	283.09553
887.649	264.62698
887.82	250.10417
887.991	224.02544
888.161	295.81408
888.332	262.27264
888.503	152.67878
888.674	341.3928
888.844	368.7765
889.015	290.10718
889.186	152.50441
889.356	346.8002
889.527	142.69149
889.698	511.92295
889.868	206.28039
890.039	267.5983
890.209	224.59794
890.38	291.28645
890.551	245.09009
890.721	348.58455
890.892	291.397
891.062	235.27663
891.233	275.71467
891.403	207.2713
891.574	173.37028
891.744	240.56331
891.914	238.88973
892.085	222.41252
892.255	108.6908
892.425	322.94138
892.596	247.66763
892.766	283.60311
892.936	311.71004
893.107	284.22198
893.277	174.05847
893.447	133.2733
893.618	116.02112
893.788	189.59333
893.958	114.31573
894.128	109.10178
894.298	126.55982
894.468	156.46935
894.639	88.40449
894.809	73.86162
894.979	93.38722
895.149	112.7117
895.319	96.89597
895.489	130.34894
895.659	151.35383
895.829	121.11537
895.999	125.31888
896.169	105.3309
896.339	131.66731
896.509	235.40465
896.679	236.88688
896.849	257.50886
897.019	320.93066
897.189	228.92325
897.358	213.35462
897.528	313.63364
897.698	133.20815
897.868	274.49021
898.038	437.67537
898.208	407.19983
898.377	135.29458
898.547	364.86847
898.717	515.01515
898.886	270.77052
899.056	442.72262
899.226	487.04469
899.395	338.9946
899.565	466.85849
899.735	349.58847
899.904	519.78162
900.074	416.31554
900.244	200.20345
900.413	639.45996
900.583	188.33415
900.752	310.16286
900.922	448.72116
901.091	72.73647
901.261	356.74213
901.43	378.96402
901.599	360.8137
901.769	717.26961
901.938	479.37647
902.108	396.49784
902.277	494.48168
902.446	157.67329
902.616	198.96359
902.785	224.87234
902.954	397.2311
903.124	246.5647
903.293	194.60239
903.462	134.74265
903.631	172.74552
903.801	128.43676
903.97	88.33124
904.139	122.42585
904.308	98.33745
904.477	93.40547
904.646	69.301
904.816	89.08022
904.985	123.86135
905.154	181.63746
