Data from WindowProjectSample_Transmission__67__00067.txt Node

Date: Sat May 03 17:26:32 EDT 2025
User: jessi
Spectrometer: SR400872
Trigger mode: 0
Integration Time (sec): 5.000010E-1
Scans to average: 6
Electric dark correction enabled: true
Nonlinearity correction enabled: true
Boxcar width: 0
XAxis mode: Wavelengths
Number of Pixels in Spectrum: 3648
>>>>>Begin Spectral Data<<<<<
184.909	9747.64975
185.132	3188.00521
185.355	-3273.76837
185.578	4280.93877
185.801	-582.11329
186.024	9542.81217
186.247	722.64305
186.47	641.02869
186.693	186.84709
186.916	230.77017
187.139	6883.77328
187.362	-2352.19285
187.585	-37477.72833
187.808	764.59971
188.031	74.50156
188.254	1217.36852
188.476	-1865.48613
188.699	1692.14375
188.922	2843.92123
189.145	7210.30024
189.368	-400.58398
189.591	-555.3273
189.813	1641.75138
190.036	3157.65684
190.259	3898.13401
190.482	1135.14481
190.705	-4652.72162
190.927	-1748.42192
191.15	4291.0443
191.373	1399.35149
191.595	-924.54016
191.818	2782.07542
192.041	-303.95868
192.263	-4067.42162
192.486	-3154.40725
192.709	14937.65222
192.931	3057.51326
193.154	5442.93665
193.377	-47183.75106
193.599	-23664.96405
193.822	-2383.73391
194.044	-2194.34858
194.267	774.41477
194.489	-169.62683
194.712	2267.28601
194.934	15842.06373
195.157	1943.24883
195.379	2858.66768
195.602	1173.00463
195.824	1590.43658
196.047	-3050.63738
196.269	62037.5454
196.492	-2815.24675
196.714	8555.18956
196.936	1799.36253
197.159	2924.32386
197.381	-431.87637
197.604	-1736.51052
197.826	57721.90098
198.048	1452.41209
198.271	8320.40499
198.493	6108.63323
198.715	-9946.21228
198.938	-2852.47986
199.16	-6182.21773
199.382	2059.52977
199.604	841.49758
199.827	-1838.57313
200.049	983.78386
200.271	-9753.88327
200.493	5420.02296
200.715	27441.13047
200.938	11031.16607
201.16	-28329.07485
201.382	-4934.97697
201.604	-1137.52873
201.826	2207.27768
202.048	-9034.48781
202.27	4333.62721
202.492	12032.23012
202.715	-893.81666
202.937	26904.10499
203.159	3401.25712
203.381	1381.43087
203.603	-962.83957
203.825	-1015.985
204.047	2403.60774
204.269	-1512.68939
204.491	-997.43165
204.713	6972.62937
204.935	-3294.07357
205.156	1061.1292
205.378	7798.76811
205.6	-1380.96676
205.822	-51026.54011
206.044	-1990.10173
206.266	5291.88395
206.488	872.15961
206.71	-27307.04933
206.932	3684.00478
207.153	-7879.29947
207.375	-2467.88149
207.597	4809.82121
207.819	1847.27467
208.041	-50764.50894
208.262	1501.12008
208.484	-981.18073
208.706	-996.6277
208.927	1424.49417
209.149	-1915.70151
209.371	-1327.93076
209.593	-1149.29851
209.814	-2124.92339
210.036	-607.62733
210.258	-1997.51762
210.479	2940.55691
210.701	2146.30531
210.922	4957.53178
211.144	42187.55828
211.366	-28073.99852
211.587	-809.32784
211.809	-2213.93209
212.03	-1139.8682
212.252	-266.63892
212.473	878.61304
212.695	-841.93617
212.916	-1613.61231
213.138	2299.30549
213.359	-1504.88416
213.581	1177.21279
213.802	-853.48011
214.024	3727.38247
214.245	-4107.88509
214.466	-279.75095
214.688	1515.50764
214.909	-699.25637
215.131	-4592.52475
215.352	-5705.74993
215.573	6021.80103
215.795	2019.55431
216.016	8255.46245
216.237	-410.32999
216.459	2180.59465
216.68	-2361.87541
216.901	1380.86954
217.122	3212.02862
217.344	3433.75335
217.565	-3046.76124
217.786	2384.70204
218.007	65532.87959
218.228	2230.33528
218.45	2999.09295
218.671	-1069.24879
218.892	1606.28172
219.113	2995.93277
219.334	1235.40075
219.555	-4500.50199
219.776	1569.41759
219.997	5848.09324
220.219	656.2237
220.44	3758.25136
220.661	4637.6191
220.882	2673.52159
221.103	-725.41852
221.324	-2399.81073
221.545	-3645.062
221.766	-2009.5871
221.987	2398.10932
222.208	-4883.20464
222.429	4387.99147
222.65	-326.20822
222.87	-839.28428
223.091	1686.88842
223.312	2692.32964
223.533	11027.24355
223.754	1391.30414
223.975	1291.8976
224.196	-1728.67667
224.417	1906.03351
224.637	-4861.5603
224.858	-173.84491
225.079	818.89222
225.3	1384.69458
225.521	2251.53962
225.741	609.23593
225.962	1045.43394
226.183	-3636.03988
226.404	663.66722
226.624	747.48718
226.845	541.82772
227.066	412.93394
227.286	227.77613
227.507	112.02314
227.728	96.99525
227.948	144.69987
228.169	46.74439
228.389	52.37449
228.61	27.83978
228.831	38.51341
229.051	3.44652
229.272	23.42507
229.492	32.26771
229.713	9.23248
229.933	23.8383
230.154	19.86619
230.374	33.97681
230.595	25.54746
230.815	17.33157
231.036	25.39706
231.256	-7.06232
231.477	45.87614
231.697	23.95524
231.917	23.83385
232.138	40.31942
232.358	84.78189
232.579	68.28377
232.799	12.1601
233.019	65.23275
233.24	81.37578
233.46	24.35252
233.68	48.07775
233.901	31.98204
234.121	24.36879
234.341	5.76965
234.561	-3.50465
234.782	13.57135
235.002	50.08182
235.222	-0.50758
235.442	41.67181
235.662	20.05283
235.883	42.91556
236.103	34.09428
236.323	24.04059
236.543	18.47818
236.763	30.89966
236.983	28.30772
237.203	32.11641
237.423	43.28695
237.643	62.29498
237.864	52.52716
238.084	12.75652
238.304	22.52546
238.524	35.18072
238.744	29.45324
238.964	45.33021
239.184	40.99469
239.404	46.03186
239.624	23.39867
239.843	40.72557
240.063	23.97917
240.283	16.58909
240.503	18.96891
240.723	18.45371
240.943	9.13801
241.163	13.4185
241.383	10.63133
241.603	5.14644
241.822	7.06377
242.042	4.42202
242.262	5.94242
242.482	6.3783
242.702	8.26558
242.921	2.92919
243.141	5.71205
243.361	4.77478
243.581	7.35651
243.8	6.03541
244.02	3.72102
244.24	8.03437
244.459	7.0601
244.679	14.03295
244.899	9.39616
245.118	9.8643
245.338	8.57066
245.558	10.962
245.777	6.0469
245.997	7.29983
246.216	7.37814
246.436	4.00053
246.655	2.9407
246.875	2.22442
247.094	4.74253
247.314	1.62844
247.533	2.70298
247.753	3.37838
247.972	2.63925
248.192	1.12467
248.411	1.5863
248.631	3.20264
248.85	3.78287
249.07	2.90941
249.289	5.03708
249.508	3.63818
249.728	5.3578
249.947	6.38094
250.166	6.61149
250.386	3.5051
250.605	4.95627
250.824	8.16069
251.044	7.02252
251.263	19.51591
251.482	9.92902
251.701	9.17134
251.921	0.04117
252.14	3.29727
252.359	3.74714
252.578	7.90259
252.798	2.76214
253.017	7.47421
253.236	3.48525
253.455	4.27809
253.674	9.55928
253.893	4.28442
254.112	5.86805
254.331	9.65434
254.551	7.15596
254.77	3.22319
254.989	10.99623
255.208	10.35909
255.427	10.96338
255.646	8.88001
255.865	16.87621
256.084	6.85037
256.303	8.05054
256.522	11.48361
256.741	1.91418
256.96	2.98675
257.179	7.19677
257.397	7.70749
257.616	4.59573
257.835	4.76156
258.054	11.78276
258.273	7.24602
258.492	8.34664
258.711	5.25042
258.93	2.21412
259.148	3.16701
259.367	3.21144
259.586	4.37783
259.805	1.83428
260.023	3.90449
260.242	3.02967
260.461	2.11904
260.68	1.19257
260.898	3.55101
261.117	1.31487
261.336	1.09897
261.554	3.04432
261.773	2.92712
261.992	0.40868
262.21	3.02755
262.429	3.78219
262.648	5.72491
262.866	7.13575
263.085	4.65344
263.303	3.79133
263.522	7.13706
263.74	6.95999
263.959	12.0849
264.178	5.58623
264.396	5.49345
264.615	3.54754
264.833	8.9573
265.051	7.61791
265.27	7.81166
265.488	9.19622
265.707	5.75946
265.925	8.67608
266.144	3.74077
266.362	4.68323
266.58	5.08854
266.799	3.77233
267.017	4.64443
267.235	4.32244
267.454	2.74989
267.672	1.68347
267.89	3.72737
268.109	3.8244
268.327	3.54963
268.545	0.74959
268.763	3.32927
268.982	1.35491
269.2	4.20709
269.418	2.21493
269.636	2.22046
269.854	3.70607
270.073	2.91665
270.291	1.42103
270.509	1.46214
270.727	3.75174
270.945	5.78656
271.163	5.77102
271.381	1.24191
271.599	2.42348
271.817	4.26735
272.036	1.41702
272.254	2.62199
272.472	2.1653
272.69	1.79038
272.908	2.23391
273.126	3.72529
273.344	4.24817
273.562	1.56104
273.779	2.12345
273.997	3.15605
274.215	3.79087
274.433	2.49682
274.651	3.70937
274.869	3.82894
275.087	2.39081
275.305	3.43916
275.523	2.03556
275.74	2.78292
275.958	4.40124
276.176	6.39003
276.394	2.07287
276.612	2.22578
276.829	2.59064
277.047	2.28807
277.265	2.39337
277.483	3.18784
277.7	3.70575
277.918	2.82403
278.136	5.00391
278.353	2.47933
278.571	1.30609
278.789	3.64022
279.006	0.9871
279.224	2.49805
279.442	4.2287
279.659	2.56481
279.877	2.11061
280.094	4.53255
280.312	0.78148
280.529	2.77038
280.747	0.4603
280.964	2.21325
281.182	4.97399
281.399	2.13888
281.617	3.04739
281.834	2.23908
282.052	1.86738
282.269	2.57548
282.487	2.14105
282.704	1.53734
282.921	1.79895
283.139	2.68407
283.356	3.37144
283.574	3.09771
283.791	1.39934
284.008	4.41466
284.226	2.33568
284.443	2.77274
284.66	3.45384
284.877	2.86414
285.095	1.74166
285.312	1.26944
285.529	0.90272
285.746	0.7481
285.964	1.7098
286.181	0.99905
286.398	1.63224
286.615	2.20362
286.832	2.09894
287.05	0.60532
287.267	1.53527
287.484	1.66649
287.701	2.18558
287.918	2.12853
288.135	2.24939
288.352	1.04994
288.569	1.12011
288.786	1.86191
289.003	1.61616
289.22	2.29313
289.437	1.54699
289.654	2.44846
289.871	2.48873
290.088	2.61191
290.305	1.83934
290.522	1.37947
290.739	1.74251
290.956	2.6304
291.173	3.1251
291.39	2.72286
291.607	2.05901
291.824	1.42736
292.04	0.87625
292.257	2.49218
292.474	2.64946
292.691	1.70062
292.908	0.9468
293.125	1.67444
293.341	0.78083
293.558	4.184
293.775	1.64484
293.992	1.73084
294.208	0.58978
294.425	1.02226
294.642	1.47494
294.858	2.15193
295.075	0.63906
295.292	1.64295
295.508	2.02149
295.725	3.07805
295.942	1.32327
296.158	0.97854
296.375	1.75345
296.591	1.32057
296.808	1.48807
297.024	1.57406
297.241	1.77568
297.458	1.95816
297.674	0.08538
297.891	1.51587
298.107	1.23661
298.323	0.88395
298.54	2.29775
298.756	1.04603
298.973	0.32922
299.189	2.45528
299.406	1.03102
299.622	2.35754
299.838	2.34302
300.055	2.21416
300.271	0.59244
300.487	0.77507
300.704	0.9627
300.92	0.67055
301.136	3.24269
301.353	2.10006
301.569	1.59504
301.785	1.86179
302.001	2.30104
302.218	2.03949
302.434	1.81031
302.65	0.50188
302.866	1.40201
303.083	3.20639
303.299	2.95759
303.515	1.62144
303.731	1.69184
303.947	0.61238
304.163	0.94082
304.379	1.86046
304.595	2.03282
304.812	1.10674
305.028	0.93838
305.244	1.25938
305.46	2.24
305.676	2.33252
305.892	2.63621
306.108	1.66596
306.324	1.34272
306.54	2.88122
306.756	2.15097
306.972	1.98294
307.187	1.38784
307.403	2.74152
307.619	1.24571
307.835	2.18796
308.051	2.77077
308.267	0.5046
308.483	2.28613
308.699	2.04085
308.914	1.73989
309.13	1.52723
309.346	0.35829
309.562	0.80845
309.778	0.44809
309.993	1.98425
310.209	1.52213
310.425	0.68287
310.641	1.32092
310.856	0.72302
311.072	0.72361
311.288	1.45723
311.503	1.59577
311.719	0.21461
311.935	0.2238
312.15	1.69268
312.366	1.58771
312.581	1.84097
312.797	1.77081
313.013	2.02212
313.228	1.12057
313.444	1.62286
313.659	1.03995
313.875	1.8403
314.09	1.38169
314.306	2.38789
314.521	2.13562
314.737	1.9667
314.952	1.83854
315.168	1.40939
315.383	1.96032
315.599	1.33405
315.814	1.28359
316.029	2.19286
316.245	0.51459
316.46	0.60403
316.675	2.61569
316.891	3.06302
317.106	3.69854
317.321	2.10665
317.537	2.11477
317.752	2.23802
317.967	2.37119
318.183	0.9707
318.398	1.34399
318.613	2.32167
318.828	2.59706
319.043	2.31908
319.259	1.28546
319.474	1.96953
319.689	2.40149
319.904	0.48013
320.119	2.18183
320.334	1.83487
320.549	1.74134
320.765	2.52216
320.98	1.73057
321.195	2.36868
321.41	1.46569
321.625	2.30742
321.84	2.90585
322.055	3.19177
322.27	1.12194
322.485	0.78899
322.7	1.73594
322.915	2.63349
323.13	0.9248
323.345	2.83245
323.56	2.28762
323.775	2.18154
323.989	2.07449
324.204	1.81116
324.419	2.34742
324.634	0.6653
324.849	1.5115
325.064	3.39413
325.279	2.33406
325.493	2.13607
325.708	2.42809
325.923	1.0098
326.138	1.07553
326.352	2.84849
326.567	2.3916
326.782	1.3171
326.997	1.06796
327.211	2.00899
327.426	1.97201
327.641	1.23972
327.855	0.49274
328.07	2.15077
328.285	2.82516
328.499	1.3447
328.714	2.0808
328.928	2.3747
329.143	1.83084
329.358	2.33057
329.572	2.27653
329.787	2.63886
330.001	3.52902
330.216	0.64135
330.43	3.08315
330.645	2.92404
330.859	2.50044
331.074	1.1384
331.288	1.75991
331.503	2.86564
331.717	0.88716
331.931	1.73613
332.146	1.77872
332.36	3.08161
332.575	2.13788
332.789	1.66855
333.003	1.60335
333.218	2.1066
333.432	1.38783
333.646	2.23955
333.86	2.7576
334.075	2.86123
334.289	1.37124
334.503	1.15177
334.717	2.13094
334.932	2.10961
335.146	2.92012
335.36	1.53196
335.574	2.24005
335.788	1.87944
336.003	2.55211
336.217	2.36552
336.431	2.21709
336.645	1.27611
336.859	0.91008
337.073	1.34182
337.287	2.12824
337.501	0.87318
337.715	1.80242
337.929	2.15186
338.143	1.0441
338.357	1.66177
338.571	1.03068
338.785	2.02012
338.999	1.31757
339.213	1.43788
339.427	0.54846
339.641	2.48259
339.855	1.65668
340.069	1.17162
340.283	2.46035
340.497	3.01032
340.711	1.96865
340.924	1.18724
341.138	0.85759
341.352	0.72528
341.566	1.83856
341.78	0.41653
341.993	1.19921
342.207	0.73073
342.421	1.82718
342.635	1.87227
342.848	1.17528
343.062	0.19028
343.276	1.11451
343.49	3.30916
343.703	1.20912
343.917	2.18217
344.131	2.25283
344.344	1.07968
344.558	1.22087
344.771	0.98633
344.985	2.72812
345.199	2.71725
345.412	1.73661
345.626	1.79076
345.839	0.42616
346.053	0.87499
346.266	0.84156
346.48	2.24545
346.693	1.80033
346.907	2.077
347.12	0.98075
347.334	1.92358
347.547	1.89273
347.76	1.451
347.974	2.46905
348.187	1.79668
348.401	1.37614
348.614	1.29234
348.827	1.43682
349.041	1.92998
349.254	0.43652
349.467	1.35394
349.681	0.72858
349.894	1.08817
350.107	2.46128
350.32	2.63425
350.534	0.50117
350.747	1.39967
350.96	0.98251
351.173	0.98677
351.386	1.4252
351.6	1.11363
351.813	0.9833
352.026	1.52271
352.239	0.59464
352.452	1.1621
352.665	1.86408
352.878	1.25153
353.092	3.08664
353.305	1.87136
353.518	1.80968
353.731	0.96027
353.944	2.49513
354.157	0.97942
354.37	0.77816
354.583	0.73296
354.796	0.44449
355.009	2.34863
355.222	1.44322
355.435	1.6072
355.647	2.16525
355.86	0.67489
356.073	1.40186
356.286	1.14221
356.499	1.88324
356.712	1.50341
356.925	1.67379
357.138	2.00184
357.35	0.77497
357.563	1.26741
357.776	1.48996
357.989	1.07756
358.201	1.68258
358.414	1.26428
358.627	2.16123
358.84	1.25158
359.052	0.78754
359.265	0.69389
359.478	2.11238
359.69	-0.29811
359.903	1.67909
360.116	1.85581
360.328	0.35047
360.541	1.87873
360.753	0.60652
360.966	0.91742
361.179	1.01644
361.391	1.00293
361.604	0.67816
361.816	1.03008
362.029	0.88557
362.241	0.778
362.454	0.85368
362.666	0.72171
362.879	1.1378
363.091	1.01543
363.304	0.64946
363.516	1.18728
363.728	0.54453
363.941	1.51226
364.153	0.6749
364.366	-0.03948
364.578	0.58461
364.79	1.57912
365.003	1.13111
365.215	0.94737
365.427	1.48345
365.639	1.98817
365.852	1.52423
366.064	2.48356
366.276	0.89907
366.488	1.52607
366.701	0.9379
366.913	1.08925
367.125	1.15711
367.337	0.829
367.549	0.99781
367.762	1.19888
367.974	1.36811
368.186	0.58058
368.398	1.95109
368.61	1.61095
368.822	1.64024
369.034	1.35684
369.246	1.66825
369.458	2.60153
369.67	0.61886
369.882	2.36829
370.094	0.04127
370.306	2.18457
370.518	0.99595
370.73	0.61872
370.942	0.69335
371.154	1.03359
371.366	0.72441
371.578	1.37345
371.79	0.58625
372.002	1.99978
372.214	2.2687
372.425	1.26814
372.637	1.92342
372.849	1.2495
373.061	-0.10339
373.273	1.42283
373.484	1.54921
373.696	1.74774
373.908	-0.04411
374.12	1.74111
374.331	1.52362
374.543	0.68747
374.755	0.50806
374.967	1.34585
375.178	1.70756
375.39	1.02969
375.602	1.27025
375.813	0.4528
376.025	0.30441
376.236	1.04103
376.448	1.17122
376.66	0.76877
376.871	0.90136
377.083	1.75284
377.294	1.80019
377.506	0.79327
377.717	1.88631
377.929	1.25662
378.14	0.58891
378.352	1.49998
378.563	1.44374
378.775	1.83815
378.986	0.67177
379.197	0.96557
379.409	0.88769
379.62	1.63005
379.832	1.34246
380.043	0.96011
380.254	1.16524
380.466	0.46289
380.677	2.87352
380.888	2.52109
381.1	2.58085
381.311	2.36141
381.522	1.09692
381.733	2.84698
381.945	0.89432
382.156	1.3108
382.367	0.93591
382.578	2.84839
382.789	2.69513
383.001	0.93641
383.212	1.76716
383.423	2.04712
383.634	1.79993
383.845	1.39604
384.056	0.75189
384.267	1.05351
384.478	1.00358
384.69	0.44465
384.901	1.49713
385.112	1.3421
385.323	1.95654
385.534	1.42134
385.745	1.29677
385.956	1.34314
386.167	0.5192
386.378	1.42793
386.588	0.31425
386.799	0.61272
387.01	0.20703
387.221	1.63403
387.432	0.94922
387.643	2.23542
387.854	1.06226
388.065	0.90425
388.275	0.95564
388.486	0.86744
388.697	1.00659
388.908	1.0222
389.119	1.90379
389.329	2.08711
389.54	1.11089
389.751	1.40855
389.962	1.71703
390.172	1.24529
390.383	0.77858
390.594	0.71567
390.804	0.70186
391.015	0.7159
391.226	1.1256
391.436	1.29415
391.647	1.2884
391.858	1.33116
392.068	0.1623
392.279	0.29773
392.489	0.96754
392.7	1.77671
392.91	0.52748
393.121	0.65688
393.331	1.27072
393.542	1.59295
393.752	1.31832
393.963	1.02868
394.173	1.04208
394.384	1.4026
394.594	0.97265
394.804	0.47681
395.015	1.09987
395.225	1.35642
395.436	0.44386
395.646	1.37478
395.856	0.63386
396.067	0.42771
396.277	1.70799
396.487	1.16427
396.697	0.95749
396.908	1.53855
397.118	1.41836
397.328	1.19493
397.538	1.64462
397.749	0.67436
397.959	1.57741
398.169	1.49785
398.379	0.39336
398.589	1.41866
398.8	1.18858
399.01	0.9839
399.22	1.03132
399.43	2.30682
399.64	0.81587
399.85	1.53229
400.06	1.01792
400.27	0.81751
400.48	1.2072
400.69	2.00703
400.9	0.87387
401.11	0.75849
401.32	1.61255
401.53	0.92037
401.74	2.0653
401.95	1.69542
402.16	0.59366
402.37	1.26521
402.58	0.70014
402.79	1.52816
403	1.64326
403.209	1.02673
403.419	1.66084
403.629	0.85311
403.839	1.62921
404.049	1.59416
404.258	0.79189
404.468	0.77309
404.678	1.57869
404.888	1.68811
405.097	0.79295
405.307	1.04079
405.517	1.46885
405.727	1.36328
405.936	1.03767
406.146	1.36651
406.356	1.88679
406.565	1.10467
406.775	0.85977
406.984	0.8656
407.194	2.32575
407.404	1.28291
407.613	1.41949
407.823	1.67469
408.032	1.95258
408.242	1.83964
408.451	0.96163
408.661	1.26443
408.87	2.28434
409.08	0.9915
409.289	1.38251
409.499	1.31333
409.708	1.42852
409.918	0.22646
410.127	1.31973
410.336	2.20227
410.546	1.76555
410.755	1.12986
410.964	1.05342
411.174	0.82362
411.383	1.67328
411.592	1.56314
411.802	0.69441
412.011	1.81756
412.22	1.23866
412.429	2.05136
412.639	2.18272
412.848	2.09986
413.057	2.37021
413.266	2.01305
413.475	1.31655
413.685	1.89184
413.894	1.84229
414.103	2.09585
414.312	1.94909
414.521	1.3432
414.73	1.59156
414.939	2.52222
415.148	1.71517
415.357	1.61531
415.566	1.28511
415.776	1.34901
415.985	1.20665
416.194	1.85111
416.403	2.45039
416.611	0.77799
416.82	1.28489
417.029	1.64831
417.238	1.249
417.447	1.19095
417.656	1.538
417.865	1.34446
418.074	1.7722
418.283	2.00563
418.492	2.71117
418.7	2.53204
418.909	3.47233
419.118	2.19378
419.327	2.73126
419.536	2.36973
419.744	2.14168
419.953	3.42327
420.162	3.37115
420.371	2.27757
420.579	2.1364
420.788	3.41161
420.997	3.41587
421.205	3.34805
421.414	3.13275
421.623	3.2156
421.831	2.73222
422.04	3.47263
422.249	2.56472
422.457	3.21184
422.666	2.4387
422.874	3.57415
423.083	3.54226
423.291	3.50455
423.5	3.0407
423.708	3.30144
423.917	3.86231
424.125	3.26007
424.334	2.829
424.542	4.86581
424.751	4.10156
424.959	3.7295
425.167	4.26949
425.376	4.01736
425.584	3.2869
425.793	3.46864
426.001	2.46852
426.209	3.31285
426.418	2.40863
426.626	2.27096
426.834	2.0614
427.042	2.3425
427.251	1.91015
427.459	2.79594
427.667	2.09456
427.875	1.44019
428.084	1.69845
428.292	2.63311
428.5	2.2858
428.708	1.46393
428.916	1.40231
429.124	2.00051
429.333	1.83082
429.541	1.78721
429.749	1.97939
429.957	2.05466
430.165	3.1985
430.373	1.25613
430.581	1.92686
430.789	2.63922
430.997	1.90129
431.205	1.67569
431.413	2.10627
431.621	1.87359
431.829	2.52591
432.037	1.98482
432.245	2.51058
432.453	2.53991
432.661	2.19983
432.869	3.58919
433.076	2.03389
433.284	2.54346
433.492	3.12135
433.7	3.47724
433.908	2.50408
434.116	2.74493
434.323	2.71443
434.531	2.6749
434.739	2.93202
434.947	2.90047
435.154	2.96711
435.362	2.33282
435.57	2.11917
435.778	1.90007
435.985	2.36105
436.193	1.96282
436.401	2.96227
436.608	2.23375
436.816	1.98707
437.023	3.13155
437.231	3.19433
437.439	2.55944
437.646	2.84329
437.854	2.72506
438.061	2.9719
438.269	2.53088
438.476	2.97716
438.684	2.73565
438.891	2.62555
439.099	2.53383
439.306	2.12359
439.514	2.36271
439.721	3.51605
439.929	2.74091
440.136	3.67531
440.343	3.55427
440.551	3.13014
440.758	5.04564
440.965	3.90334
441.173	3.54004
441.38	3.09107
441.587	3.53071
441.795	3.0957
442.002	3.17444
442.209	3.20394
442.416	3.28179
442.624	3.10462
442.831	3.04386
443.038	2.27491
443.245	2.26667
443.452	2.38876
443.66	3.15417
443.867	2.36894
444.074	2.44121
444.281	2.50962
444.488	2.64781
444.695	3.05643
444.902	2.84426
445.109	3.79234
445.316	3.20743
445.523	3.32124
445.73	3.0779
445.937	3.92184
446.144	4.22121
446.351	4.47622
446.558	3.44398
446.765	4.86926
446.972	4.75967
447.179	4.02834
447.386	4.9559
447.593	3.63764
447.8	4.6024
448.007	3.52408
448.214	3.40617
448.42	2.98015
448.627	3.88095
448.834	2.98413
449.041	2.85232
449.248	2.72402
449.454	3.1119
449.661	3.68618
449.868	2.37158
450.075	2.19136
450.281	1.65659
450.488	1.79782
450.695	1.87573
450.901	1.9278
451.108	2.15238
451.315	2.92021
451.521	2.22289
451.728	3.03677
451.935	2.1611
452.141	2.45071
452.348	2.58131
452.554	2.30885
452.761	2.33323
452.967	3.46731
453.174	2.75744
453.38	2.6055
453.587	1.94136
453.793	2.57105
454	2.78388
454.206	3.52076
454.413	3.01026
454.619	2.66102
454.825	2.07423
455.032	2.63104
455.238	2.76991
455.445	1.76508
455.651	2.40278
455.857	1.45876
456.064	2.2013
456.27	2.1724
456.476	2.11833
456.682	1.56437
456.889	2.36752
457.095	2.52253
457.301	3.4588
457.507	2.39888
457.714	2.46564
457.92	2.50839
458.126	2.19072
458.332	2.66954
458.538	2.66031
458.744	2.94443
458.951	3.02697
459.157	4.69777
459.363	3.78323
459.569	3.6864
459.775	4.53296
459.981	3.81286
460.187	4.29546
460.393	4.57839
460.599	5.06639
460.805	4.13044
461.011	3.69054
461.217	4.13492
461.423	3.80283
461.629	3.04633
461.835	3.17718
462.041	2.51882
462.247	3.32787
462.453	2.30957
462.658	2.30374
462.864	2.7386
463.07	2.6362
463.276	2.46524
463.482	2.59176
463.688	3.19636
463.893	2.20565
464.099	2.29834
464.305	3.24536
464.511	2.20019
464.716	2.41079
464.922	2.8739
465.128	1.96869
465.333	3.21099
465.539	2.75368
465.745	2.56702
465.95	2.47408
466.156	3.91911
466.362	3.06489
466.567	2.43692
466.773	2.28814
466.978	3.33954
467.184	2.19552
467.389	1.63626
467.595	2.75426
467.8	2.23056
468.006	3.13633
468.211	3.12073
468.417	2.09895
468.622	2.72027
468.828	2.85811
469.033	2.61204
469.239	3.94226
469.444	2.20198
469.649	3.03385
469.855	2.38559
470.06	2.59432
470.266	2.00094
470.471	3.01382
470.676	2.82482
470.881	1.71049
471.087	3.30365
471.292	3.45887
471.497	1.94609
471.703	2.41222
471.908	2.25225
472.113	2.58812
472.318	3.01539
472.523	2.06368
472.729	2.80498
472.934	2.90372
473.139	2.33431
473.344	3.02906
473.549	3.26927
473.754	2.25821
473.959	3.81109
474.164	2.26474
474.369	2.42944
474.575	3.03097
474.78	2.65926
474.985	2.29426
475.19	1.74563
475.395	2.21759
475.6	2.60377
475.804	3.34158
476.009	2.64514
476.214	2.57051
476.419	2.32148
476.624	1.91527
476.829	2.403
477.034	3.01833
477.239	2.46377
477.444	3.13343
477.648	3.21215
477.853	3.2547
478.058	2.62385
478.263	2.51166
478.468	2.39052
478.672	2.4087
478.877	3.72726
479.082	3.80805
479.287	3.10991
479.491	2.79835
479.696	2.32368
479.901	3.28111
480.105	3.36206
480.31	2.65923
480.515	3.14051
480.719	4.55365
480.924	2.93105
481.128	2.82746
481.333	3.72796
481.538	3.84587
481.742	3.69053
481.947	4.70058
482.151	4.94332
482.356	5.02657
482.56	6.28277
482.765	6.8949
482.969	8.63389
483.174	9.67004
483.378	11.57957
483.582	11.51326
483.787	12.93554
483.991	12.55607
484.196	13.1243
484.4	12.61857
484.604	13.2634
484.809	11.36765
485.013	11.24425
485.217	9.82887
485.422	8.58062
485.626	7.80893
485.83	7.37295
486.034	7.02486
486.239	7.29796
486.443	7.20724
486.647	7.43824
486.851	8.39027
487.055	9.2189
487.26	8.63468
487.464	9.33839
487.668	8.63534
487.872	8.81555
488.076	9.56611
488.28	8.83922
488.484	8.11494
488.688	7.86983
488.892	7.85152
489.096	7.49756
489.3	6.40313
489.504	6.12609
489.708	6.25021
489.912	6.04868
490.116	5.83388
490.32	5.24905
490.524	5.92842
490.728	6.47187
490.932	6.64694
491.136	6.84047
491.34	7.90725
491.544	8.23869
491.748	7.84826
491.951	7.88536
492.155	7.58754
492.359	7.51871
492.563	6.34481
492.767	6.09233
492.97	5.4446
493.174	4.75855
493.378	4.57852
493.582	3.67649
493.785	3.6689
493.989	3.72759
494.193	3.59151
494.396	3.21027
494.6	3.68976
494.804	3.06283
495.007	2.90314
495.211	3.05152
495.414	3.13307
495.618	3.50843
495.822	4.15548
496.025	3.5879
496.229	4.0468
496.432	3.48264
496.636	3.75512
496.839	3.90822
497.043	4.87982
497.246	4.00914
497.45	3.73532
497.653	3.89809
497.856	3.91831
498.06	3.27946
498.263	3.58844
498.467	3.41147
498.67	4.01805
498.873	3.64797
499.077	3.15125
499.28	3.26288
499.483	3.46737
499.686	3.63853
499.89	3.21751
500.093	3.50783
500.296	2.57519
500.499	3.75398
500.703	2.875
500.906	3.0825
501.109	3.72097
501.312	2.88098
501.515	2.72672
501.719	3.07798
501.922	3.42793
502.125	2.81489
502.328	2.92098
502.531	2.28036
502.734	2.87512
502.937	2.12116
503.14	2.94245
503.343	2.45433
503.546	2.74657
503.749	2.62075
503.952	3.18338
504.155	2.5223
504.358	3.23594
504.561	3.1406
504.764	2.38645
504.967	2.99401
505.17	2.9804
505.373	3.6871
505.576	2.78368
505.778	3.22871
505.981	2.50743
506.184	3.48481
506.387	2.11027
506.59	3.84326
506.793	3.48633
506.995	3.01433
507.198	2.05053
507.401	3.23029
507.604	3.2963
507.806	2.62558
508.009	2.80977
508.212	3.53447
508.414	2.99407
508.617	3.09098
508.82	3.37983
509.022	4.24678
509.225	3.60139
509.427	2.61828
509.63	4.06049
509.833	3.29395
510.035	3.20359
510.238	2.5013
510.44	4.02461
510.643	2.30356
510.845	4.19247
511.048	3.49635
511.25	2.89651
511.453	3.16956
511.655	3.42776
511.858	3.1171
512.06	3.74407
512.262	3.36089
512.465	3.73142
512.667	3.12111
512.869	2.63452
513.072	3.33655
513.274	3.5085
513.476	3.3493
513.679	3.38294
513.881	2.44751
514.083	3.70293
514.286	2.58851
514.488	2.51874
514.69	2.55132
514.892	2.39602
515.094	3.25802
515.297	2.73626
515.499	2.99654
515.701	2.49792
515.903	3.74378
516.105	3.81974
516.307	3.29741
516.509	2.09031
516.711	2.50774
516.913	3.13211
517.116	3.29744
517.318	3.14202
517.52	4.17138
517.722	4.18761
517.924	3.35934
518.126	4.29759
518.328	3.89703
518.529	4.62029
518.731	5.44463
518.933	3.85441
519.135	4.11468
519.337	4.81744
519.539	4.40045
519.741	2.84425
519.943	3.4644
520.145	3.14627
520.346	3.89151
520.548	3.05938
520.75	3.32915
520.952	2.92603
521.153	3.25785
521.355	3.21514
521.557	2.45326
521.759	2.9576
521.96	2.90025
522.162	2.52528
522.364	3.53641
522.565	2.63606
522.767	3.37317
522.969	3.5439
523.17	3.26861
523.372	3.04159
523.573	2.76669
523.775	2.89391
523.977	2.5065
524.178	3.96617
524.38	3.09377
524.581	4.09708
524.783	3.41809
524.984	4.5606
525.186	4.11427
525.387	4.77341
525.589	4.52432
525.79	4.34448
525.991	4.14751
526.193	4.98516
526.394	4.11057
526.596	5.13934
526.797	5.27174
526.998	4.78324
527.2	4.79055
527.401	6.38302
527.602	6.77846
527.803	8.58095
528.005	8.79355
528.206	9.61713
528.407	10.05253
528.608	9.62051
528.81	10.02834
529.011	9.24976
529.212	10.41105
529.413	9.25403
529.614	8.61215
529.815	8.60032
530.017	7.64414
530.218	6.63476
530.419	5.63156
530.62	5.75734
530.821	5.52091
531.022	4.2388
531.223	5.25096
531.424	5.13628
531.625	5.31817
531.826	4.9475
532.027	5.22539
532.228	6.40656
532.429	6.04928
532.63	6.014
532.831	6.62267
533.032	6.44449
533.233	7.24279
533.433	6.87207
533.634	7.17876
533.835	6.47699
534.036	5.89904
534.237	5.82996
534.438	5.36293
534.638	4.28559
534.839	4.52708
535.04	4.71259
535.241	4.1045
535.441	5.40429
535.642	4.74033
535.843	3.85235
536.043	4.23809
536.244	4.25364
536.445	4.56269
536.645	5.40385
536.846	4.89611
537.047	5.60452
537.247	4.12582
537.448	4.26283
537.648	4.37883
537.849	3.90763
538.049	3.74124
538.25	3.89043
538.451	3.79242
538.651	2.89797
538.851	3.47985
539.052	3.9988
539.252	3.90037
539.453	3.50226
539.653	3.94383
539.854	3.94705
540.054	4.54189
540.254	5.59302
540.455	6.3145
540.655	5.70627
540.855	6.73485
541.056	7.64303
541.256	7.06763
541.456	8.16621
541.657	7.27451
541.857	8.34838
542.057	6.6798
542.257	6.3506
542.458	7.11615
542.658	6.85344
542.858	5.25836
543.058	6.07345
543.258	5.43841
543.458	4.03041
543.659	3.91417
543.859	5.01578
544.059	4.777
544.259	4.15766
544.459	4.43031
544.659	3.55608
544.859	3.99859
545.059	3.20421
545.259	4.13224
545.459	3.72351
545.659	4.26586
545.859	3.81367
546.059	3.91987
546.259	3.47663
546.459	3.23221
546.659	3.17515
546.859	4.31623
547.059	4.04914
547.258	3.95422
547.458	3.84073
547.658	2.93632
547.858	2.64011
548.058	3.32027
548.258	2.99529
548.457	2.65726
548.657	4.45608
548.857	2.9566
549.057	3.5328
549.256	3.51034
549.456	2.89323
549.656	1.90326
549.855	4.1683
550.055	2.80348
550.255	4.1214
550.454	3.39831
550.654	3.50895
550.853	3.93312
551.053	3.71944
551.253	3.21068
551.452	3.30632
551.652	2.53688
551.851	2.1719
552.051	2.93258
552.25	2.76992
552.45	2.67208
552.649	2.8529
552.849	2.6188
553.048	3.02089
553.248	3.40896
553.447	2.62759
553.646	3.57332
553.846	4.25443
554.045	3.75324
554.244	2.37735
554.444	4.15378
554.643	2.60358
554.842	4.05635
555.042	4.39608
555.241	2.71044
555.44	2.46332
555.64	3.49402
555.839	4.24656
556.038	3.398
556.237	2.72872
556.436	3.16507
556.636	3.56978
556.835	2.77593
557.034	4.20364
557.233	2.95871
557.432	2.43658
557.631	3.83654
557.83	3.08528
558.029	2.75402
558.228	2.69407
558.427	2.53919
558.626	3.32906
558.825	2.60661
559.024	3.27391
559.223	4.27982
559.422	3.02598
559.621	3.45762
559.82	1.63907
560.019	3.13341
560.218	2.99423
560.417	1.32884
560.616	2.6935
560.815	5.24874
561.014	2.14915
561.212	3.99429
561.411	3.11271
561.61	2.11077
561.809	2.93075
562.008	3.89745
562.206	2.81606
562.405	3.57763
562.604	2.91164
562.803	3.25168
563.001	3.00866
563.2	2.31588
563.399	3.55047
563.597	2.26587
563.796	3.18184
563.995	2.29185
564.193	3.4896
564.392	2.9235
564.59	4.51081
564.789	1.89607
564.988	2.6406
565.186	3.12851
565.385	2.78747
565.583	2.8787
565.782	3.00526
565.98	2.90523
566.179	3.00521
566.377	2.25268
566.575	2.59715
566.774	3.82445
566.972	3.60071
567.171	4.2162
567.369	3.99726
567.567	3.18091
567.766	3.33115
567.964	1.80856
568.162	3.42174
568.361	3.82183
568.559	2.95662
568.757	3.42834
568.956	3.24659
569.154	3.04826
569.352	3.54462
569.55	3.06313
569.748	3.09388
569.947	2.55278
570.145	2.53239
570.343	2.35484
570.541	3.76281
570.739	2.19891
570.937	2.99972
571.135	3.22144
571.333	4.28944
571.532	4.09018
571.73	3.13069
571.928	3.76695
572.126	3.43722
572.324	2.74844
572.522	3.93069
572.72	4.92556
572.918	3.13116
573.116	3.28583
573.313	3.02621
573.511	3.04775
573.709	2.82224
573.907	3.63415
574.105	2.85177
574.303	2.08448
574.501	2.06222
574.699	3.26285
574.896	3.30623
575.094	3.39427
575.292	2.16205
575.49	3.63129
575.688	2.84443
575.885	3.95911
576.083	4.56219
576.281	3.4976
576.478	2.56478
576.676	3.47112
576.874	2.05512
577.071	2.86
577.269	4.80052
577.467	3.12262
577.664	3.01154
577.862	3.80195
578.059	2.48195
578.257	3.64707
578.455	2.94513
578.652	3.0946
578.85	1.75712
579.047	3.20034
579.245	2.87078
579.442	3.0321
579.64	3.17455
579.837	1.75027
580.034	5.21473
580.232	2.87831
580.429	2.30642
580.627	3.694
580.824	4.30494
581.021	3.40463
581.219	3.0327
581.416	2.51026
581.613	4.04202
581.811	4.44378
582.008	2.46572
582.205	3.79176
582.402	3.2135
582.6	4.99014
582.797	3.29316
582.994	3.35067
583.191	3.72412
583.388	3.31276
583.586	4.02455
583.783	4.2511
583.98	2.87246
584.177	3.55145
584.374	0.95644
584.571	3.0231
584.768	3.24082
584.965	2.79019
585.162	3.68718
585.359	4.62643
585.556	3.38996
585.753	3.41848
585.95	2.30656
586.147	2.8558
586.344	3.73329
586.541	2.96805
586.738	2.32683
586.935	3.31649
587.132	2.6036
587.329	4.09119
587.526	3.2939
587.722	7.19284
587.919	2.15032
588.116	3.64359
588.313	4.2929
588.51	5.04214
588.706	2.83614
588.903	3.74042
589.1	3.9793
589.297	5.4126
589.493	3.28751
589.69	3.64259
589.887	2.98731
590.083	2.39905
590.28	2.73864
590.477	3.91774
590.673	3.91502
590.87	4.31645
591.067	3.22721
591.263	3.91945
591.46	3.6752
591.656	2.96565
591.853	4.30261
592.049	2.46261
592.246	2.65975
592.442	4.35773
592.639	4.24638
592.835	2.42425
593.032	3.59083
593.228	2.19234
593.425	2.19282
593.621	1.94224
593.817	3.3853
594.014	2.54117
594.21	3.32243
594.406	4.12755
594.603	3.80364
594.799	2.73763
594.995	1.25514
595.192	4.40596
595.388	2.79083
595.584	2.79304
595.78	2.27862
595.977	5.04664
596.173	4.48277
596.369	2.98649
596.565	2.32429
596.761	2.10648
596.957	4.31802
597.154	2.45939
597.35	2.62723
597.546	2.64897
597.742	3.8482
597.938	3.22588
598.134	2.43848
598.33	3.4922
598.526	4.30831
598.722	3.70462
598.918	4.77968
599.114	3.75773
599.31	2.67717
599.506	3.50153
599.702	2.7556
599.898	3.45464
600.094	4.15235
600.29	4.02638
600.485	4.0663
600.681	3.2018
600.877	4.98649
601.073	3.32565
601.269	5.14115
601.465	4.58164
601.66	2.43672
601.856	1.75802
602.052	4.92942
602.248	2.79342
602.443	1.63051
602.639	2.08474
602.835	2.60585
603.03	2.36396
603.226	4.01273
603.422	2.32916
603.617	2.7884
603.813	2.9785
604.009	2.71735
604.204	4.07809
604.4	1.99018
604.595	3.87989
604.791	2.32374
604.986	3.27667
605.182	2.53476
605.377	2.9426
605.573	2.6692
605.768	3.38608
605.964	3.7684
606.159	3.96645
606.355	4.42342
606.55	2.90735
606.746	4.40323
606.941	3.31581
607.136	5.38664
607.332	6.00501
607.527	2.14195
607.722	3.78203
607.918	3.25148
608.113	2.52687
608.308	4.03016
608.503	3.83588
608.699	3.56575
608.894	3.72994
609.089	2.59391
609.284	3.27037
609.479	2.78058
609.675	3.80946
609.87	2.87859
610.065	4.03568
610.26	4.18678
610.455	3.97171
610.65	3.16537
610.845	3.38169
611.04	4.14785
611.235	3.12889
611.43	2.97197
611.625	2.31118
611.82	4.74228
612.015	2.68845
612.21	5.0029
612.405	2.00703
612.6	5.56835
612.795	4.57922
612.99	4.18987
613.185	2.72814
613.38	2.70117
613.575	3.82864
613.77	6.27797
613.965	1.91525
614.159	2.7388
614.354	4.95027
614.549	4.63717
614.744	4.2944
614.938	2.51754
615.133	2.29753
615.328	5.0281
615.523	4.87123
615.717	6.7445
615.912	2.88469
616.107	3.79147
616.301	3.14102
616.496	3.03859
616.691	5.31724
616.885	4.5786
617.08	6.55884
617.274	4.95032
617.469	6.04902
617.664	4.59858
617.858	3.41929
618.053	4.14897
618.247	3.51848
618.442	1.24599
618.636	5.175
618.831	3.081
619.025	3.19062
619.219	6.89476
619.414	0.46906
619.608	3.69098
619.803	3.10249
619.997	6.16766
620.191	5.17228
620.386	4.16008
620.58	3.68879
620.774	2.07155
620.969	2.05981
621.163	3.75846
621.357	2.43741
621.551	3.41105
621.746	4.06395
621.94	3.58304
622.134	7.62516
622.328	6.01185
622.522	2.09914
622.716	4.77043
622.911	5.09794
623.105	4.87892
623.299	4.01841
623.493	7.67628
623.687	2.5935
623.881	3.45695
624.075	4.60224
624.269	5.15107
624.463	1.86699
624.657	2.28012
624.851	4.32779
625.045	4.70487
625.239	4.84893
625.433	3.44237
625.627	5.45801
625.821	2.94987
626.015	2.92403
626.209	3.81881
626.403	2.31736
626.596	4.15376
626.79	4.46962
626.984	2.25269
627.178	4.21449
627.372	4.15136
627.565	4.45789
627.759	1.94911
627.953	2.28278
628.147	4.18629
628.34	4.2259
628.534	5.76302
628.728	3.5282
628.921	4.88686
629.115	4.78818
629.309	4.95264
629.502	5.19098
629.696	3.99969
629.89	3.77961
630.083	4.10812
630.277	4.45772
630.47	6.13214
630.664	3.87723
630.857	2.61196
631.051	4.8774
631.244	5.6018
631.438	5.0381
631.631	3.2953
631.825	5.54537
632.018	4.87575
632.212	6.35793
632.405	5.80515
632.598	3.22291
632.792	4.01346
632.985	1.28895
633.178	3.6451
633.372	3.82597
633.565	3.84091
633.758	5.86623
633.952	2.67531
634.145	2.835
634.338	3.81515
634.531	3.28701
634.724	3.0911
634.918	4.18827
635.111	3.63811
635.304	3.40872
635.497	7.06875
635.69	4.37318
635.883	5.70306
636.077	2.38245
636.27	4.80448
636.463	4.4649
636.656	4.3761
636.849	3.35945
637.042	4.83698
637.235	6.70363
637.428	5.15512
637.621	5.39325
637.814	6.41804
638.007	6.54576
638.2	6.37901
638.393	7.02794
638.586	2.96484
638.778	3.73493
638.971	4.91252
639.164	6.60279
639.357	4.76896
639.55	6.42279
639.743	5.52401
639.935	5.29145
640.128	7.33344
640.321	5.31135
640.514	4.78161
640.707	8.24574
640.899	5.80865
641.092	2.20637
641.285	15.62067
641.477	1.42659
641.67	7.96326
641.863	6.7987
642.055	5.06698
642.248	5.04421
642.441	4.09312
642.633	5.70703
642.826	7.08266
643.018	7.09841
643.211	7.7262
643.403	7.3841
643.596	8.57766
643.788	8.07408
643.981	4.51408
644.173	6.61459
644.366	4.77536
644.558	2.09919
644.751	6.33627
644.943	2.57273
645.135	7.73202
645.328	7.79154
645.52	5.99131
645.712	6.88685
645.905	10.47575
646.097	3.56153
646.289	5.85981
646.482	8.1117
646.674	4.00023
646.866	6.98509
647.058	5.99072
647.251	3.49077
647.443	4.27596
647.635	4.62862
647.827	3.82893
648.019	3.82726
648.211	5.19765
648.404	5.41186
648.596	7.9656
648.788	5.67934
648.98	5.51926
649.172	6.27064
649.364	6.067
649.556	2.19542
649.748	9.15616
649.94	3.94688
650.132	5.81225
650.324	3.66282
650.516	4.2237
650.708	7.33837
650.9	3.07036
651.092	2.79661
651.284	2.91413
651.476	3.3897
651.667	6.07551
651.859	7.4996
652.051	4.89175
652.243	5.65892
652.435	4.42585
652.627	6.36209
652.818	5.74221
653.01	2.67779
653.202	4.05075
653.394	4.92205
653.585	6.0831
653.777	12.96924
653.969	8.07978
654.16	7.03586
654.352	4.02761
654.544	4.90161
654.735	7.48361
654.927	5.42396
655.118	8.2047
655.31	6.72712
655.502	7.10647
655.693	4.57967
655.885	6.73223
656.076	7.96272
656.268	5.56751
656.459	8.50761
656.651	8.18247
656.842	4.64289
657.034	4.3337
657.225	6.73698
657.416	8.00196
657.608	7.73975
657.799	5.32409
657.99	7.35531
658.182	4.10376
658.373	4.33605
658.564	6.66769
658.756	5.52005
658.947	5.13116
659.138	3.33049
659.33	4.28166
659.521	3.97727
659.712	4.75248
659.903	4.94789
660.094	4.46167
660.286	2.96824
660.477	8.5921
660.668	6.33083
660.859	5.30678
661.05	2.7716
661.241	6.93951
661.432	6.29724
661.623	5.17351
661.814	4.33261
662.006	2.58417
662.197	6.0999
662.388	7.82255
662.579	6.08861
662.77	7.92767
662.96	10.95907
663.151	7.63845
663.342	3.07765
663.533	6.1028
663.724	6.02046
663.915	9.23331
664.106	5.71038
664.297	9.73105
664.488	7.27218
664.678	5.03697
664.869	6.96032
665.06	8.48957
665.251	6.44879
665.442	7.08006
665.632	4.21432
665.823	10.41961
666.014	0.72588
666.204	7.57598
666.395	8.2615
666.586	12.143
666.776	7.962
666.967	9.69116
667.158	6.40256
667.348	9.4139
667.539	3.78813
667.729	8.17789
667.92	4.40268
668.111	8.21917
668.301	7.58504
668.492	5.8541
668.682	6.38404
668.873	5.49849
669.063	4.16413
669.253	6.15855
669.444	8.07612
669.634	6.0443
669.825	9.9162
670.015	8.261
670.206	4.82275
670.396	10.90033
670.586	6.03807
670.777	7.55164
670.967	2.18645
671.157	5.78798
671.347	4.90923
671.538	9.71059
671.728	7.67846
671.918	10.87734
672.108	7.90126
672.299	6.50201
672.489	7.90241
672.679	6.12299
672.869	7.77108
673.059	10.38265
673.249	7.47159
673.44	4.05924
673.63	6.32008
673.82	8.49362
674.01	4.99635
674.2	7.88516
674.39	13.81088
674.58	8.35631
674.77	6.87011
674.96	7.12654
675.15	15.99828
675.34	9.37827
675.53	7.00817
675.72	6.09863
675.91	3.58785
676.099	10.34359
676.289	12.77721
676.479	8.96933
676.669	5.84073
676.859	8.2053
677.049	4.54291
677.238	6.71691
677.428	10.85513
677.618	7.91155
677.808	9.52266
677.997	8.25844
678.187	4.5612
678.377	6.89746
678.567	5.69166
678.756	6.00624
678.946	5.91753
679.136	3.79842
679.325	5.26532
679.515	4.74256
679.704	4.10495
679.894	7.89096
680.084	6.99535
680.273	8.56934
680.463	4.7106
680.652	4.57153
680.842	6.43866
681.031	8.15185
681.221	4.75206
681.41	7.87887
681.6	6.02857
681.789	8.66747
681.978	9.33965
682.168	7.52592
682.357	7.27077
682.547	8.54255
682.736	7.77103
682.925	9.99107
683.115	9.72958
683.304	9.16713
683.493	8.54168
683.682	8.25634
683.872	8.60519
684.061	10.30296
684.25	9.15053
684.439	12.39591
684.629	8.93587
684.818	15.93311
685.007	7.42018
685.196	6.85832
685.385	11.42363
685.574	8.70828
685.763	8.92644
685.952	7.7655
686.142	5.08563
686.331	11.22372
686.52	3.45946
686.709	12.25609
686.898	11.85194
687.087	9.45645
687.276	12.54108
687.465	10.72979
687.654	7.12989
687.842	12.14124
688.031	4.79467
688.22	11.89336
688.409	8.77617
688.598	8.2288
688.787	14.54499
688.976	8.72392
689.165	12.8721
689.353	6.99513
689.542	9.42316
689.731	10.44213
689.92	14.13685
690.108	10.84423
690.297	7.6942
690.486	8.41257
690.675	10.55468
690.863	13.60516
691.052	12.20524
691.241	9.81557
691.429	9.21741
691.618	12.5189
691.806	5.30086
691.995	8.16472
692.184	8.94394
692.372	7.14784
692.561	9.21537
692.749	8.94045
692.938	16.25108
693.126	10.45383
693.315	9.1951
693.503	10.7838
693.692	11.39833
693.88	12.14172
694.068	15.8298
694.257	8.74026
694.445	10.02667
694.634	3.42636
694.822	11.89415
695.01	13.02542
695.199	13.75315
695.387	13.9525
695.575	12.48653
695.763	9.25755
695.952	8.5279
696.14	5.02038
696.328	7.6081
696.516	9.8325
696.705	9.5481
696.893	10.05601
697.081	4.07162
697.269	11.35984
697.457	6.24764
697.645	5.72392
697.833	11.21483
698.021	6.58818
698.21	6.94724
698.398	7.90588
698.586	5.37425
698.774	5.15881
698.962	7.82366
699.15	5.58211
699.338	4.66721
699.526	9.42219
699.714	6.93816
699.901	6.71709
700.089	11.0019
700.277	6.30155
700.465	7.72956
700.653	10.52506
700.841	9.20313
701.029	6.48619
701.217	12.42279
701.404	8.94733
701.592	13.49926
701.78	15.58443
701.968	8.90866
702.155	9.23565
702.343	5.20168
702.531	13.94912
702.718	10.88211
702.906	8.97113
703.094	7.11902
703.281	13.44899
703.469	9.04487
703.657	13.103
703.844	20.76559
704.032	15.39457
704.219	8.39
704.407	11.57644
704.595	13.48127
704.782	10.65056
704.97	8.76038
705.157	8.562
705.345	14.79161
705.532	19.65094
705.719	11.4673
705.907	15.44791
706.094	10.38175
706.282	16.16486
706.469	9.18652
706.656	10.1994
706.844	9.8439
707.031	14.26359
707.218	11.12258
707.406	16.29824
707.593	13.57447
707.78	12.15928
707.968	10.99727
708.155	8.12241
708.342	12.99174
708.529	12.28187
708.716	11.57897
708.904	15.92469
709.091	13.47932
709.278	6.69183
709.465	17.17075
709.652	16.67971
709.839	15.55438
710.026	12.94304
710.213	5.52238
710.4	11.78412
710.587	14.54837
710.774	15.61547
710.961	15.31191
711.148	11.88734
711.335	15.61685
711.522	10.69232
711.709	12.82838
711.896	18.67427
712.083	15.87806
712.27	8.19986
712.457	11.56694
712.644	7.12092
712.831	19.0095
713.017	11.7755
713.204	14.65735
713.391	8.83873
713.578	15.75897
713.765	17.39566
713.951	14.35003
714.138	24.71748
714.325	14.51104
714.512	13.03941
714.698	9.96391
714.885	18.35113
715.072	13.92448
715.258	13.14371
715.445	10.65318
715.631	17.45296
715.818	3.31138
716.005	10.26605
716.191	15.24362
716.378	11.68065
716.564	15.39725
716.751	10.10544
716.937	11.05893
717.124	17.47753
717.31	9.3415
717.497	19.91172
717.683	11.07087
717.869	21.98762
718.056	10.76308
718.242	16.02353
718.429	12.44743
718.615	9.60381
718.801	14.17079
718.988	16.51639
719.174	15.01859
719.36	12.42264
719.547	17.55207
719.733	15.92042
719.919	14.80096
720.105	15.93198
720.291	13.10363
720.478	15.06535
720.664	12.86612
720.85	12.08089
721.036	26.63436
721.222	20.72455
721.408	12.96544
721.595	23.19334
721.781	22.73648
721.967	20.04134
722.153	21.74189
722.339	17.23068
722.525	15.93877
722.711	11.1564
722.897	7.58582
723.083	12.02308
723.269	18.16232
723.455	26.92731
723.641	28.53186
723.827	16.07835
724.012	16.37565
724.198	12.28879
724.384	21.28534
724.57	16.09939
724.756	7.47751
724.942	6.05981
725.127	19.67201
725.313	20.77773
725.499	21.62084
725.685	23.50411
725.87	15.97699
726.056	11.01676
726.242	21.37539
726.428	8.36157
726.613	19.85306
726.799	14.13404
726.985	9.83977
727.17	8.65631
727.356	24.10903
727.541	11.07503
727.727	13.11138
727.913	19.04649
728.098	12.71519
728.284	18.63274
728.469	8.4884
728.655	11.32938
728.84	18.97992
729.026	18.05284
729.211	19.93018
729.397	16.86623
729.582	18.23389
729.767	15.24007
729.953	17.75099
730.138	20.34974
730.323	5.40953
730.509	10.03785
730.694	22.678
730.879	16.62399
731.065	15.92444
731.25	25.6936
731.435	18.03362
731.621	9.13823
731.806	13.10769
731.991	16.82461
732.176	8.62528
732.361	22.4602
732.547	17.7617
732.732	7.68114
732.917	26.33255
733.102	9.71679
733.287	11.7961
733.472	16.47609
733.657	15.52179
733.842	9.25737
734.027	14.22763
734.212	14.32123
734.397	11.19943
734.582	16.04365
734.767	19.31098
734.952	21.93518
735.137	4.52119
735.322	24.02729
735.507	16.48897
735.692	17.87323
735.877	27.36659
736.062	25.60089
736.247	16.76894
736.431	14.50353
736.616	21.86515
736.801	17.025
736.986	16.0837
737.171	12.09949
737.355	9.47914
737.54	23.29781
737.725	16.22558
737.909	30.43268
738.094	13.70337
738.279	19.99088
738.463	15.21922
738.648	19.3851
738.833	19.01758
739.017	27.19611
739.202	16.21788
739.386	15.68871
739.571	11.50405
739.756	21.08116
739.94	16.71438
740.125	21.59406
740.309	12.90557
740.494	19.78856
740.678	16.97166
740.863	19.04048
741.047	17.22906
741.231	23.50878
741.416	13.11409
741.6	25.18084
741.785	11.66615
741.969	21.93626
742.153	22.78359
742.338	7.59544
742.522	15.75797
742.706	21.14633
742.89	9.43855
743.075	18.04787
743.259	24.79737
743.443	22.41896
743.627	24.25477
743.812	29.87266
743.996	3.44844
744.18	18.16757
744.364	13.39157
744.548	31.49099
744.732	17.47318
744.916	21.73834
745.1	21.2651
745.285	16.58508
745.469	19.32719
745.653	27.88579
745.837	10.03815
746.021	30.3494
746.205	23.77658
746.389	18.61036
746.573	15.16265
746.757	27.46041
746.94	15.61669
747.124	24.93768
747.308	11.29886
747.492	24.28196
747.676	15.09809
747.86	31.92711
748.044	16.15468
748.227	9.3281
748.411	41.08117
748.595	21.08966
748.779	12.78126
748.963	21.15637
749.146	18.65142
749.33	14.02929
749.514	10.56254
749.697	24.23903
749.881	13.72187
750.065	11.17041
750.248	18.92681
750.432	34.29655
750.616	19.77781
750.799	9.77604
750.983	32.03068
751.166	36.91066
751.35	8.57634
751.533	21.68672
751.717	27.70187
751.9	28.01133
752.084	15.17108
752.267	9.44293
752.451	13.24621
752.634	19.39277
752.818	23.70713
753.001	23.16617
753.184	25.71778
753.368	19.74108
753.551	0.25598
753.734	14.42124
753.918	32.57161
754.101	13.82331
754.284	24.19994
754.467	15.95155
754.651	14.26175
754.834	15.28572
755.017	26.96766
755.2	24.99964
755.384	12.44586
755.567	24.58616
755.75	27.23915
755.933	16.59719
756.116	20.03
756.299	15.80552
756.482	12.63299
756.665	23.78199
756.848	21.07052
757.032	21.94948
757.215	10.46369
757.398	13.08221
757.581	12.92323
757.764	37.58374
757.947	18.07066
758.129	25.44461
758.312	0.96742
758.495	18.05355
758.678	17.49041
758.861	20.00188
759.044	31.77054
759.227	15.41902
759.41	13.45234
759.592	23.93967
759.775	16.74886
759.958	27.01804
760.141	9.42698
760.324	31.31317
760.506	30.14526
760.689	24.29695
760.872	35.71964
761.054	21.96988
761.237	15.07191
761.42	25.25432
761.602	24.86838
761.785	22.44102
761.968	25.41441
762.15	32.47883
762.333	18.78915
762.515	19.10996
762.698	14.71873
762.88	24.35469
763.063	20.36312
763.245	24.26256
763.428	12.80418
763.61	12.80453
763.793	12.01069
763.975	20.70534
764.158	14.93561
764.34	15.1553
764.522	12.0394
764.705	16.84278
764.887	27.54241
765.069	9.47509
765.252	23.72797
765.434	23.39362
765.616	19.13033
765.799	14.47432
765.981	22.73305
766.163	13.09504
766.345	24.69335
766.528	15.61156
766.71	3.78474
766.892	20.37906
767.074	25.97305
767.256	15.83793
767.438	31.3884
767.62	20.84016
767.802	36.36954
767.985	25.50154
768.167	34.43264
768.349	14.49687
768.531	24.22453
768.713	21.72109
768.895	28.74882
769.077	24.25716
769.259	39.87243
769.441	60.35827
769.623	28.91488
769.804	31.96694
769.986	32.79765
770.168	41.28619
770.35	49.49398
770.532	38.23905
770.714	39.22133
770.896	42.8515
771.077	12.41658
771.259	42.64681
771.441	35.41114
771.623	43.71295
771.804	58.02262
771.986	10.77497
772.168	25.35292
772.35	41.12594
772.531	59.02056
772.713	36.33272
772.894	45.69338
773.076	32.77836
773.258	22.76073
773.439	48.45201
773.621	47.80801
773.802	17.58685
773.984	30.35653
774.166	34.1957
774.347	51.8149
774.529	39.96863
774.71	8.14004
774.891	30.01716
775.073	28.99655
775.254	50.56941
775.436	25.5169
775.617	54.86027
775.799	24.62278
775.98	53.59707
776.161	51.56847
776.343	53.68558
776.524	32.71704
776.705	29.94063
776.886	15.78045
777.068	37.54287
777.249	67.73732
777.43	58.3733
777.611	21.68664
777.793	30.73844
777.974	54.26167
778.155	29.42839
778.336	20.12996
778.517	60.38427
778.698	26.49694
778.879	10.92593
779.061	2.85611
779.242	38.51176
779.423	37.38127
779.604	25.67337
779.785	29.91204
779.966	35.2394
780.147	45.8465
780.328	46.20031
780.509	66.94381
780.69	42.072
780.871	27.55881
781.051	12.84833
781.232	35.31979
781.413	36.0135
781.594	29.89671
781.775	26.59732
781.956	24.08445
782.137	13.69195
782.317	23.3408
782.498	36.09684
782.679	36.12828
782.86	35.68602
783.04	26.87726
783.221	37.42673
783.402	59.41347
783.583	33.26703
783.763	44.37968
783.944	27.73163
784.124	16.09916
784.305	56.22631
784.486	41.85
784.666	30.6256
784.847	12.4245
785.027	72.04212
785.208	24.03869
785.388	26.58114
785.569	22.78613
785.749	30.6043
785.93	23.67836
786.11	16.32166
786.291	39.19187
786.471	36.89044
786.652	43.06098
786.832	31.12672
787.012	36.94302
787.193	20.22946
787.373	32.02546
787.553	29.41624
787.734	36.4476
787.914	25.60524
788.094	40.21279
788.275	40.16143
788.455	30.26689
788.635	18.28328
788.815	38.18228
788.995	20.48663
789.176	16.32728
789.356	22.00881
789.536	28.24829
789.716	41.11028
789.896	23.18276
790.076	28.17232
790.256	36.8021
790.436	7.63743
790.616	19.49036
790.796	37.4954
790.976	27.95986
791.156	25.43989
791.336	38.66702
791.516	36.20204
791.696	29.92882
791.876	14.17977
792.056	36.20794
792.236	42.70323
792.416	44.41922
792.596	39.84463
792.776	40.52407
792.956	41.50489
793.135	55.75616
793.315	20.05741
793.495	51.72556
793.675	38.02453
793.854	44.79737
794.034	47.3581
794.214	16.36956
794.394	44.09106
794.573	45.91175
794.753	32.95274
794.933	22.54911
795.112	36.7877
795.292	44.72602
795.472	57.13273
795.651	20.65045
795.831	33.61141
796.01	28.08243
796.19	28.86786
796.369	29.66388
796.549	36.92513
796.728	28.67501
796.908	19.08719
797.087	19.72459
797.267	31.58898
797.446	18.15626
797.626	37.90038
797.805	38.67068
797.984	24.57514
798.164	39.96127
798.343	19.96615
798.522	36.87136
798.702	33.23007
798.881	17.81266
799.06	28.35843
799.239	10.45256
799.419	19.8561
799.598	52.98058
799.777	40.19708
799.956	47.07319
800.136	31.44572
800.315	22.21219
800.494	35.911
800.673	45.3676
800.852	40.95603
801.031	49.76757
801.21	42.55247
801.389	23.86545
801.568	37.66162
801.747	57.61726
801.926	31.33042
802.105	52.72644
802.284	27.86089
802.463	50.9261
802.642	35.49624
802.821	36.95531
803	50.84221
803.179	46.10816
803.358	45.63797
803.537	25.90556
803.716	40.8127
803.895	24.59963
804.073	30.65742
804.252	24.34978
804.431	39.19114
804.61	35.50441
804.789	51.07416
804.967	27.30928
805.146	26.82875
805.325	61.05007
805.503	36.24376
805.682	16.5827
805.861	70.04526
806.039	48.15056
806.218	22.10518
806.397	35.74204
806.575	32.03662
806.754	40.77853
806.932	23.85595
807.111	55.28162
807.289	44.59095
807.468	36.47907
807.646	45.44076
807.825	38.93457
808.003	35.25347
808.182	46.55558
808.36	33.07266
808.539	23.0806
808.717	53.90672
808.895	23.02783
809.074	39.6501
809.252	28.45273
809.43	45.98959
809.609	54.29045
809.787	63.32631
809.965	28.91752
810.144	34.59632
810.322	29.35299
810.5	40.0658
810.678	35.04264
810.856	62.85707
811.035	51.57468
811.213	46.93911
811.391	51.18751
811.569	39.59651
811.747	80.66963
811.925	50.50146
812.103	26.40594
812.281	30.36328
812.459	65.62265
812.637	63.28127
812.816	48.65845
812.994	68.32789
813.171	55.90156
813.349	48.23308
813.527	54.11583
813.705	56.89297
813.883	69.331
814.061	53.81477
814.239	62.98697
814.417	73.95833
814.595	48.1222
814.773	42.68079
814.95	42.32119
815.128	44.04907
815.306	34.80755
815.484	32.7623
815.662	29.03587
815.839	22.93284
816.017	29.52382
816.195	53.13093
816.372	35.69354
816.55	50.79648
816.728	65.42191
816.905	35.69241
817.083	59.49971
817.261	41.03866
817.438	77.16561
817.616	70.70031
817.793	32.35628
817.971	50.36518
818.148	47.05091
818.326	61.44217
818.503	43.30416
818.681	59.21307
818.858	33.09413
819.036	37.77128
819.213	41.63838
819.391	30.92346
819.568	27.95931
819.745	22.69325
819.923	45.61121
820.1	29.47994
820.277	26.64744
820.455	32.04604
820.632	32.93334
820.809	34.20432
820.986	20.18824
821.164	16.8874
821.341	14.65582
821.518	21.15622
821.695	14.87724
821.872	14.47758
822.05	11.42727
822.227	8.30682
822.404	9.48292
822.581	11.47728
822.758	9.14035
822.935	9.49101
823.112	11.93698
823.289	8.89079
823.466	11.40963
823.643	10.33623
823.82	13.59565
823.997	12.08938
824.174	15.35191
824.351	21.24279
824.528	19.7654
824.705	17.31631
824.882	19.23408
825.059	26.75903
825.236	16.40623
825.412	17.64849
825.589	23.3934
825.766	33.6274
825.943	19.69037
826.12	22.06336
826.296	14.03644
826.473	20.60547
826.65	19.73057
826.827	26.124
827.003	16.04654
827.18	18.98237
827.357	20.89611
827.533	17.25177
827.71	8.66331
827.887	15.31181
828.063	18.47723
828.24	15.50327
828.416	22.99994
828.593	17.1627
828.769	27.66146
828.946	30.79493
829.122	32.7307
829.299	30.8588
829.475	10.78281
829.652	27.29773
829.828	49.36847
830.005	30.31299
830.181	39.40218
830.357	26.26532
830.534	44.63764
830.71	35.8062
830.886	43.61589
831.063	40.03674
831.239	50.83679
831.415	24.00673
831.592	56.0778
831.768	32.79674
831.944	24.89395
832.12	55.73843
832.296	52.57116
832.473	43.6482
832.649	26.7927
832.825	42.66097
833.001	22.77107
833.177	38.50179
833.353	33.50063
833.529	16.41855
833.705	27.20561
833.881	18.31782
834.058	16.90132
834.234	19.81283
834.41	19.75771
834.586	14.76838
834.761	18.05236
834.937	21.22082
835.113	24.13809
835.289	18.26815
835.465	25.93663
835.641	22.2298
835.817	22.97681
835.993	45.9978
836.169	19.72212
836.344	32.66779
836.52	38.39686
836.696	40.92592
836.872	22.18934
837.048	88.73987
837.223	31.48082
837.399	70.54959
837.575	52.65004
837.75	48.15193
837.926	72.68113
838.102	115.35959
838.277	82.37483
838.453	115.20265
838.628	114.61153
838.804	28.02464
838.98	105.86616
839.155	51.46181
839.331	65.40054
839.506	50.16294
839.682	48.30821
839.857	63.05808
840.033	75.67417
840.208	29.99204
840.384	14.3231
840.559	32.60597
840.734	56.81265
840.91	75.35461
841.085	50.3458
841.26	52.70432
841.436	44.68497
841.611	37.01176
841.786	58.98319
841.962	95.89034
842.137	61.7557
842.312	26.90496
842.487	44.1404
842.663	39.70021
842.838	49.4509
843.013	181.0965
843.188	86.95152
843.363	75.5784
843.538	168.70847
843.714	163.06369
843.889	158.20069
844.064	159.74516
844.239	126.27682
844.414	178.27439
844.589	110.84586
844.764	212.93213
844.939	181.57924
845.114	210.79588
845.289	222.14734
845.464	243.97026
845.639	170.17069
845.814	77.30931
845.989	130.67288
846.163	126.07834
846.338	144.72299
846.513	213.98116
846.688	157.42671
846.863	171.97029
847.038	131.60738
847.212	123.20943
847.387	140.29566
847.562	144.5598
847.737	200.20864
847.911	83.04288
848.086	100.92775
848.261	252.63146
848.435	131.51529
848.61	196.90609
848.785	88.50207
848.959	197.84058
849.134	232.50739
849.308	342.16356
849.483	157.48727
849.658	230.54502
849.832	135.65743
850.007	85.62065
850.181	317.33038
850.356	113.86052
850.53	289.98786
850.705	98.67773
850.879	68.02133
851.053	141.99104
851.228	140.29271
851.402	218.48159
851.577	214.93159
851.751	256.86554
851.925	136.51847
852.099	66.40176
852.274	137.59243
852.448	154.84626
852.622	240.54094
852.797	149.22896
852.971	151.24758
853.145	219.25354
853.319	309.95111
853.493	264.94887
853.668	150.77505
853.842	294.01891
854.016	209.2845
854.19	314.22986
854.364	170.37097
854.538	190.59499
854.712	257.5439
854.886	161.28445
855.06	139.76929
855.234	55.07539
855.408	280.6372
855.582	196.7272
855.756	283.6683
855.93	252.17055
856.104	184.64626
856.278	258.11615
856.452	133.41798
856.626	185.44674
856.8	368.94005
856.973	193.3145
857.147	219.3438
857.321	227.14753
857.495	240.09016
857.669	176.6406
857.842	151.74734
858.016	254.80636
858.19	111.22245
858.364	369.92219
858.537	149.52818
858.711	208.65116
858.885	153.78015
859.058	117.34148
859.232	72.27051
859.405	72.10429
859.579	230.6808
859.753	233.5297
859.926	111.91745
860.1	90.17741
860.273	178.98554
860.447	253.30871
860.62	161.59129
860.794	283.82459
860.967	202.88849
861.141	235.67531
861.314	362.70446
861.487	182.16034
861.661	254.57717
861.834	303.2822
862.008	263.44301
862.181	192.02599
862.354	196.81908
862.528	189.97595
862.701	141.24647
862.874	100.60485
863.047	158.17817
863.221	142.11753
863.394	69.14522
863.567	233.30981
863.74	48.51657
863.913	225.32751
864.087	227.15162
864.26	226.33073
864.433	164.80535
864.606	332.57688
864.779	178.07024
864.952	80.96662
865.125	172.18514
865.298	185.28041
865.471	180.1193
865.644	296.56065
865.817	223.49211
865.99	280.56201
866.163	272.02618
866.336	148.75049
866.509	148.65776
866.682	191.71211
866.855	279.84902
867.028	93.72471
867.2	201.27282
867.373	32.254
867.546	154.46609
867.719	347.00708
867.892	201.74439
868.064	114.7009
868.237	178.08758
868.41	192.85357
868.583	75.50833
868.755	115.98252
868.928	159.90699
869.101	353.33767
869.273	270.45444
869.446	179.32057
869.619	267.87839
869.791	158.18875
869.964	241.01911
870.136	259.77612
870.309	157.91858
870.481	151.20935
870.654	91.19732
870.826	164.36525
870.999	131.47328
871.171	208.54379
871.344	105.3977
871.516	160.32347
871.689	109.92209
871.861	176.6527
872.033	114.29112
872.206	150.06458
872.378	208.67014
872.55	162.63763
872.723	102.68389
872.895	142.90133
873.067	242.90321
873.24	224.04241
873.412	133.28209
873.584	140.82451
873.756	147.74274
873.928	204.23622
874.101	154.93518
874.273	207.80586
874.445	67.59508
874.617	102.43256
874.789	160.27608
874.961	116.90507
875.133	190.1647
875.305	162.22497
875.477	101.13111
875.649	79.59559
875.821	94.57629
875.993	262.60275
876.165	122.02144
876.337	156.63204
876.509	177.65424
876.681	171.06432
876.853	150.65157
877.025	171.75542
877.197	114.42747
877.369	98.39762
877.541	182.15264
877.712	37.66951
877.884	80.94481
878.056	160.16552
878.228	84.87407
878.4	174.2203
878.571	94.05112
878.743	57.38171
878.915	134.70637
879.086	74.23207
879.258	94.10615
879.43	86.03548
879.601	73.38831
879.773	72.97157
879.945	13.13188
880.116	27.30585
880.288	14.72051
880.459	20.00792
880.631	13.90277
880.802	17.19619
880.974	15.42202
881.145	9.65142
881.317	15.41313
881.488	10.73941
881.66	11.85417
881.831	11.31618
882.002	16.52217
882.174	11.37201
882.345	15.82594
882.517	7.00855
882.688	20.11534
882.859	14.82726
883.03	28.17444
883.202	25.37293
883.373	22.10706
883.544	22.45409
883.715	38.72307
883.887	31.89133
884.058	24.89093
884.229	40.41187
884.4	40.25436
884.571	46.85333
884.742	35.51153
884.914	40.64325
885.085	63.82647
885.256	87.036
885.427	68.39305
885.598	79.01719
885.769	77.40779
885.94	76.25023
886.111	45.72944
886.282	100.68083
886.453	79.67113
886.624	53.02203
886.795	105.40446
886.966	79.91101
887.136	111.62119
887.307	76.81211
887.478	164.77377
887.649	133.38165
887.82	155.57199
887.991	114.87192
888.161	156.93888
888.332	147.11749
888.503	85.72146
888.674	211.5848
888.844	253.1288
889.015	185.56909
889.186	106.47891
889.356	229.90627
889.527	101.40333
889.698	318.24294
889.868	120.18266
890.039	171.99049
890.209	144.26866
890.38	218.84612
890.551	187.60858
890.721	245.20449
890.892	187.70212
891.062	181.72283
891.233	194.98929
891.403	152.52236
891.574	100.33494
891.744	136.27471
891.914	159.06601
892.085	174.06431
892.255	45.69953
892.425	232.16646
892.596	144.10986
892.766	168.71186
892.936	227.11833
893.107	186.52908
893.277	84.76934
893.447	63.2958
893.618	44.56289
893.788	106.00853
893.958	57.19995
894.128	42.79791
894.298	60.72006
894.468	78.40689
894.639	34.09772
894.809	18.19205
894.979	37.34028
895.149	43.59715
895.319	37.16977
895.489	51.2555
895.659	71.49614
895.829	44.82357
895.999	47.87371
896.169	37.2488
896.339	49.80766
896.509	99.95995
896.679	114.09939
896.849	111.85605
897.019	159.16277
897.189	137.4686
897.358	123.96679
897.528	183.37451
897.698	60.84715
897.868	201.69631
898.038	350.76011
898.208	270.63546
898.377	84.62823
898.547	377.39546
898.717	553.43748
898.886	219.28376
899.056	334.32005
899.226	398.47141
899.395	418.97301
899.565	572.1808
899.735	342.57356
899.904	442.1952
900.074	496.9547
900.244	189.70118
900.413	667.93476
900.583	171.68574
900.752	331.70303
900.922	425.52666
901.091	38.98589
901.261	627.97023
901.43	332.90568
901.599	418.85455
901.769	745.34389
901.938	437.74922
902.108	380.61211
902.277	445.99618
902.446	133.61426
902.616	156.71657
902.785	173.09544
902.954	342.24249
903.124	184.41037
903.293	135.8632
903.462	68.03793
903.631	96.28323
903.801	73.8807
903.97	32.317
904.139	58.6645
904.308	43.49281
904.477	36.59164
904.646	19.76428
904.816	31.97955
904.985	49.75606
905.154	78.83966
