Data from WindowProjectSample_Transmission__67__00067__002280553946611452.txt Node

Date: Mon May 05 18:35:00 EDT 2025
User: jessi
Spectrometer: SR400872
Trigger mode: 0
Integration Time (sec): 5.000010E-1
Scans to average: 20
Electric dark correction enabled: true
Nonlinearity correction enabled: true
Boxcar width: 0
XAxis mode: Wavelengths
Number of Pixels in Spectrum: 3648
>>>>>Begin Spectral Data<<<<<
184.909	21181.52643
185.132	-5207.58442
185.355	-3044.73037
185.578	-18360.88003
185.801	1594.67751
186.024	10391.49789
186.247	-1950.12756
186.47	1117.64298
186.693	450.50211
186.916	219.2396
187.139	-3715.84003
187.362	3496.70287
187.585	4518.17986
187.808	3420.34873
188.031	94.43418
188.254	-60097.80334
188.476	-808.33706
188.699	6348.68116
188.922	658.6299
189.145	-15423.22198
189.368	-727.07345
189.591	-1260.97738
189.813	3145.00733
190.036	-51428.83119
190.259	-956.38507
190.482	-4463.92672
190.705	7132.11069
190.927	-2697.62619
191.15	13791.5722
191.373	3384.2521
191.595	-9259.42383
191.818	-4058.96057
192.041	-7565.52111
192.263	-3437.25117
192.486	-891.56826
192.709	-4065.06048
192.931	7944.42055
193.154	-28411.21246
193.377	-2942.20517
193.599	-2458.40048
193.822	-9827.70807
194.044	-2101.90361
194.267	1124.17001
194.489	279.74363
194.712	-44670.06321
194.934	-32166.89367
195.157	1205.56007
195.379	1437.29167
195.602	-6951.44215
195.824	-1362.78583
196.047	-8986.85156
196.269	2783.07143
196.492	-6735.92108
196.714	29666.17482
196.936	-8924.98773
197.159	-1155.98616
197.381	1109.7382
197.604	457.39263
197.826	13096.94695
198.048	-11304.51684
198.271	-2855.49798
198.493	7467.03194
198.715	2345.76723
198.938	-493.16558
199.16	7045.3483
199.382	-102591.18293
199.604	2815.58021
199.827	-1129.22173
200.049	-3029.11082
200.271	13824.99027
200.493	1262.01579
200.715	-37698.80615
200.938	-6176.78826
201.16	-4407.3508
201.382	21821.16974
201.604	2347.72358
201.826	2311.39613
202.048	-2001.1124
202.27	-1995.91179
202.492	-35742.48665
202.715	3004.97991
202.937	-4541.3434
203.159	-6604.19986
203.381	1554.80082
203.603	7022.48132
203.825	6501.37243
204.047	2286.44586
204.269	-2748.75984
204.491	2210.34779
204.713	5990.14023
204.935	-487988.83548
205.156	1208.58292
205.378	-2827.51855
205.6	1700.09714
205.822	156451.88276
206.044	-1088.95717
206.266	1572.59407
206.488	5042.59483
206.71	-5322.66441
206.932	1074.60873
207.153	12625.59541
207.375	-7225.20754
207.597	-36977.28256
207.819	-2856.74438
208.041	2433.95427
208.262	466.38784
208.484	734.48728
208.706	-808.32423
208.927	-820.36899
209.149	541.29734
209.371	-3018.14284
209.593	-266.69742
209.814	-765.05564
210.036	641.45294
210.258	-700.09569
210.479	1634.74449
210.701	1704.66284
210.922	3424.68347
211.144	-3835.45677
211.366	2218.80745
211.587	6293.55563
211.809	-8204.9066
212.03	2443.12372
212.252	480.06546
212.473	2004.21192
212.695	-6669.56164
212.916	3044.1013
213.138	-665.33615
213.359	3676.41311
213.581	5385.52945
213.802	-794.91662
214.024	1163.048
214.245	2110.83107
214.466	3459.95809
214.688	-3229.1949
214.909	-1336.71615
215.131	-1777.15211
215.352	-3461.44765
215.573	14917.56893
215.795	4998.57427
216.016	5441.32227
216.237	841.076
216.459	3726.25195
216.68	1790.5896
216.901	5223.43405
217.122	-3402.59953
217.344	-11454.12652
217.565	3482.2179
217.786	8977.32236
218.007	16733.95001
218.228	-912.46435
218.45	5886.35679
218.671	822.67476
218.892	38378.74238
219.113	1519.07678
219.334	-428.92691
219.555	10486.55736
219.776	3149.66035
219.997	22952.42974
220.219	2799.71264
220.44	-11631.3463
220.661	483.79443
220.882	1536.06443
221.103	-1123.00731
221.324	2376.31607
221.545	2343.17471
221.766	-9267.94188
221.987	885.06599
222.208	1717.74603
222.429	4367.68113
222.65	232.9876
222.87	18088.584
223.091	745.1755
223.312	607.62389
223.533	1332.84805
223.754	1525.72251
223.975	1429.8164
224.196	1976.70014
224.417	1320.85085
224.637	604.22458
224.858	86.72305
225.079	1144.75245
225.3	675.00859
225.521	3764.00561
225.741	504.63726
225.962	524.70612
226.183	158.30209
226.404	675.2749
226.624	435.40872
226.845	670.00381
227.066	415.14479
227.286	258.88799
227.507	131.55844
227.728	116.67842
227.948	242.8005
228.169	79.43798
228.389	86.82946
228.61	48.88356
228.831	62.71161
229.051	1.27712
229.272	40.40833
229.492	56.89026
229.713	15.18544
229.933	38.10506
230.154	33.53146
230.374	55.23542
230.595	37.24894
230.815	25.10452
231.036	39.32185
231.256	-9.53292
231.477	70.15372
231.697	39.9739
231.917	40.67318
232.138	58.97969
232.358	117.6332
232.579	104.7836
232.799	19.34974
233.019	101.12035
233.24	117.29042
233.46	41.40115
233.68	64.63884
233.901	39.24472
234.121	28.41884
234.341	13.91352
234.561	-3.0014
234.782	22.62103
235.002	66.99031
235.222	-3.9112
235.442	64.92773
235.662	33.12786
235.883	64.10188
236.103	52.67158
236.323	38.17469
236.543	29.78759
236.763	42.58236
236.983	44.23133
237.203	42.6928
237.423	61.5814
237.643	89.0459
237.864	77.28346
238.084	19.53997
238.304	24.08464
238.524	46.41617
238.744	42.12844
238.964	75.1091
239.184	61.46715
239.404	65.56299
239.624	35.62357
239.843	60.75283
240.063	36.06041
240.283	22.88111
240.503	26.72211
240.723	25.12872
240.943	14.84296
241.163	20.23131
241.383	15.26416
241.603	7.14327
241.822	10.21887
242.042	6.48892
242.262	8.39975
242.482	9.52814
242.702	10.88068
242.921	2.83197
243.141	6.62992
243.361	6.12834
243.581	9.71784
243.8	7.47354
244.02	5.47657
244.24	9.33704
244.459	9.87373
244.679	18.02362
244.899	11.24617
245.118	12.91176
245.338	12.2846
245.558	14.38995
245.777	9.0706
245.997	10.38047
246.216	10.57888
246.436	6.51256
246.655	5.11279
246.875	3.09196
247.094	6.2893
247.314	2.07068
247.533	3.68775
247.753	4.61491
247.972	3.44409
248.192	1.21816
248.411	1.94308
248.631	3.61337
248.85	4.74873
249.07	3.77027
249.289	5.9237
249.508	5.19398
249.728	7.18638
249.947	6.98241
250.166	9.09045
250.386	4.6629
250.605	7.07908
250.824	11.42582
251.044	7.50311
251.263	29.36544
251.482	14.96073
251.701	12.26728
251.921	-0.00668
252.14	3.80693
252.359	4.31681
252.578	10.22319
252.798	3.76822
253.017	9.02358
253.236	4.522
253.455	5.96655
253.674	10.85408
253.893	5.14546
254.112	7.96927
254.331	11.36142
254.551	9.22742
254.77	4.66034
254.989	13.15156
255.208	10.45318
255.427	15.24043
255.646	11.80012
255.865	21.83564
256.084	8.61041
256.303	10.95401
256.522	13.87823
256.741	2.90473
256.96	3.22087
257.179	8.21523
257.397	11.06523
257.616	5.90889
257.835	6.41352
258.054	15.13795
258.273	10.95288
258.492	10.84157
258.711	7.01581
258.93	3.14142
259.148	4.91622
259.367	4.67602
259.586	5.66784
259.805	2.48188
260.023	5.33762
260.242	3.85018
260.461	2.84568
260.68	1.35833
260.898	4.51729
261.117	1.4247
261.336	1.01985
261.554	3.47106
261.773	3.45381
261.992	0.84225
262.21	3.29518
262.429	3.75932
262.648	7.66741
262.866	8.29091
263.085	5.88392
263.303	4.9471
263.522	8.70852
263.74	9.02507
263.959	15.75631
264.178	7.56222
264.396	6.59632
264.615	5.16192
264.833	10.61448
265.051	8.88276
265.27	10.82039
265.488	11.33967
265.707	6.12673
265.925	10.76196
266.144	4.56807
266.362	5.90282
266.58	5.48587
266.799	5.3505
267.017	6.10292
267.235	5.20826
267.454	3.35022
267.672	2.0094
267.89	4.13603
268.109	4.58318
268.327	4.50151
268.545	0.97914
268.763	4.23669
268.982	1.52702
269.2	4.22722
269.418	3.11243
269.636	1.60691
269.854	4.84956
270.073	3.37646
270.291	2.10061
270.509	1.8722
270.727	4.70702
270.945	7.29461
271.163	7.30936
271.381	1.6049
271.599	3.38836
271.817	5.3522
272.036	1.77028
272.254	3.36028
272.472	2.57319
272.69	2.61291
272.908	2.51267
273.126	4.49269
273.344	5.44098
273.562	1.81528
273.779	2.42354
273.997	3.72122
274.215	4.27635
274.433	2.94707
274.651	4.24576
274.869	4.75351
275.087	2.83207
275.305	4.11428
275.523	2.61123
275.74	2.93064
275.958	5.55055
276.176	8.47666
276.394	2.50254
276.612	3.32565
276.829	3.43817
277.047	2.75963
277.265	2.88686
277.483	3.76
277.7	4.44852
277.918	3.60791
278.136	6.33981
278.353	3.15602
278.571	1.55995
278.789	4.3269
279.006	0.89018
279.224	2.93302
279.442	5.18029
279.659	3.74588
279.877	2.46496
280.094	6.1191
280.312	1.12998
280.529	3.58543
280.747	0.93035
280.964	2.69588
281.182	6.18409
281.399	2.71807
281.617	3.95523
281.834	2.68685
282.052	1.9453
282.269	3.17603
282.487	2.65946
282.704	2.10815
282.921	2.22929
283.139	3.25807
283.356	4.03464
283.574	3.89851
283.791	1.93509
284.008	5.69099
284.226	3.0266
284.443	3.299
284.66	4.22043
284.877	3.43098
285.095	2.11672
285.312	1.74859
285.529	0.9184
285.746	0.80381
285.964	2.13302
286.181	1.42147
286.398	1.98445
286.615	2.73172
286.832	2.5943
287.05	0.61551
287.267	1.90735
287.484	1.82996
287.701	2.57026
287.918	2.66946
288.135	2.76243
288.352	1.33759
288.569	1.4595
288.786	2.49352
289.003	2.11851
289.22	3.14958
289.437	1.64964
289.654	2.89382
289.871	3.19195
290.088	3.01841
290.305	2.28359
290.522	1.73989
290.739	2.07184
290.956	3.17216
291.173	3.67406
291.39	3.45705
291.607	2.47787
291.824	1.80773
292.04	1.23251
292.257	2.93338
292.474	3.2927
292.691	2.05127
292.908	0.94869
293.125	1.74785
293.341	1.15136
293.558	5.02136
293.775	2.03597
293.992	1.9034
294.208	0.88263
294.425	1.40658
294.642	1.9439
294.858	2.35159
295.075	0.66824
295.292	2.01408
295.508	2.34198
295.725	4.13244
295.942	1.64346
296.158	1.33264
296.375	1.9321
296.591	1.5647
296.808	1.75394
297.024	1.95952
297.241	2.2567
297.458	2.4204
297.674	0.13033
297.891	1.80766
298.107	1.42387
298.323	1.1051
298.54	3.14288
298.756	1.35792
298.973	0.64783
299.189	3.07859
299.406	1.26747
299.622	2.78013
299.838	2.74459
300.055	2.70453
300.271	0.44087
300.487	1.06116
300.704	1.22176
300.92	0.64038
301.136	4.19969
301.353	2.68483
301.569	1.9495
301.785	2.16048
302.001	2.59336
302.218	2.32158
302.434	2.20364
302.65	0.72537
302.866	1.59348
303.083	3.98302
303.299	3.75181
303.515	1.92307
303.731	2.03013
303.947	0.54675
304.163	1.16764
304.379	2.04786
304.595	2.44127
304.812	1.39203
305.028	1.28788
305.244	1.71593
305.46	2.67267
305.676	2.70878
305.892	3.16323
306.108	2.29683
306.324	1.44456
306.54	3.65038
306.756	2.5855
306.972	2.42381
307.187	1.80201
307.403	3.4335
307.619	1.55183
307.835	3.17298
308.051	3.50747
308.267	1.00858
308.483	2.9266
308.699	2.51235
308.914	1.96453
309.13	1.8363
309.346	0.55812
309.562	0.96911
309.778	0.65129
309.993	2.40328
310.209	1.79745
310.425	0.84144
310.641	1.58394
310.856	0.94882
311.072	0.9012
311.288	1.72881
311.503	1.93344
311.719	0.36541
311.935	0.14478
312.15	2.13987
312.366	1.80082
312.581	2.26523
312.797	1.69555
313.013	2.63453
313.228	1.36638
313.444	1.8728
313.659	1.29438
313.875	2.28891
314.09	1.77514
314.306	3.24397
314.521	2.6694
314.737	2.52902
314.952	1.8928
315.168	1.79422
315.383	2.27171
315.599	1.81416
315.814	1.58091
316.029	2.53455
316.245	0.72672
316.46	0.59473
316.675	3.04016
316.891	3.40943
317.106	4.54019
317.321	2.23826
317.537	2.48464
317.752	2.66159
317.967	2.72141
318.183	1.03799
318.398	1.49245
318.613	2.73596
318.828	3.30829
319.043	2.89788
319.259	1.72504
319.474	2.30022
319.689	3.05975
319.904	0.4663
320.119	2.63492
320.334	2.29161
320.549	1.76929
320.765	2.89712
320.98	2.19156
321.195	2.72879
321.41	1.82062
321.625	2.68499
321.84	3.66286
322.055	3.58537
322.27	1.31668
322.485	1.04747
322.7	2.33729
322.915	2.95514
323.13	1.26039
323.345	3.21329
323.56	2.6666
323.775	2.49374
323.989	2.38174
324.204	2.19927
324.419	3.03473
324.634	0.9377
324.849	1.84594
325.064	4.9934
325.279	2.84465
325.493	2.36078
325.708	2.82725
325.923	1.34834
326.138	1.38451
326.352	3.53868
326.567	2.96921
326.782	1.72202
326.997	1.32027
327.211	2.47567
327.426	2.25742
327.641	1.49068
327.855	0.55401
328.07	2.29136
328.285	3.40957
328.499	1.47746
328.714	2.20103
328.928	2.68981
329.143	1.85611
329.358	2.8265
329.572	2.9719
329.787	3.101
330.001	4.28553
330.216	0.9411
330.43	3.70685
330.645	3.5412
330.859	2.95712
331.074	1.50548
331.288	2.09789
331.503	3.07357
331.717	1.08648
331.931	2.14309
332.146	2.14944
332.36	3.57996
332.575	2.47811
332.789	2.34226
333.003	2.0338
333.218	2.53209
333.432	1.37259
333.646	2.71621
333.86	3.38204
334.075	3.40961
334.289	1.57383
334.503	1.23103
334.717	2.28997
334.932	2.38251
335.146	3.09922
335.36	1.70283
335.574	2.56726
335.788	2.50649
336.003	2.99497
336.217	2.41391
336.431	2.58466
336.645	1.4562
336.859	1.03631
337.073	1.80802
337.287	2.21964
337.501	1.19279
337.715	2.16625
337.929	2.78166
338.143	1.03642
338.357	1.7861
338.571	1.24154
338.785	2.35704
338.999	1.6992
339.213	1.49961
339.427	0.69044
339.641	3.27225
339.855	1.841
340.069	1.56576
340.283	2.84904
340.497	3.69301
340.711	2.25442
340.924	1.65729
341.138	1.07653
341.352	0.88514
341.566	2.19247
341.78	0.56953
341.993	1.5674
342.207	1.12454
342.421	2.06348
342.635	1.78467
342.848	1.54706
343.062	0.21288
343.276	1.32143
343.49	3.82038
343.703	1.40561
343.917	2.73786
344.131	2.75829
344.344	1.26654
344.558	1.58301
344.771	0.98263
344.985	3.38127
345.199	3.23273
345.412	2.11525
345.626	2.15332
345.839	0.65983
346.053	0.9504
346.266	0.99379
346.48	2.45578
346.693	2.13944
346.907	2.15825
347.12	1.14225
347.334	2.18226
347.547	2.13621
347.76	1.40067
347.974	2.87478
348.187	2.14797
348.401	1.38203
348.614	1.36372
348.827	1.52078
349.041	2.30199
349.254	0.58102
349.467	1.6338
349.681	0.76896
349.894	1.37677
350.107	2.86827
350.32	3.12988
350.534	0.62093
350.747	1.35005
350.96	1.10823
351.173	1.15254
351.386	1.63557
351.6	1.4092
351.813	1.23668
352.026	1.76323
352.239	0.65617
352.452	1.4856
352.665	2.54877
352.878	1.76968
353.092	3.32928
353.305	2.41738
353.518	2.01362
353.731	1.17766
353.944	2.73315
354.157	1.29975
354.37	1.01109
354.583	0.94278
354.796	0.35097
355.009	2.58636
355.222	1.97592
355.435	1.74168
355.647	2.36408
355.86	0.85632
356.073	1.71938
356.286	1.26073
356.499	2.17101
356.712	1.86615
356.925	2.17773
357.138	2.32092
357.35	0.95847
357.563	1.39531
357.776	1.70791
357.989	1.27304
358.201	1.94738
358.414	1.6635
358.627	2.50531
358.84	1.31571
359.052	0.6957
359.265	0.83106
359.478	2.35474
359.69	-0.33174
359.903	2.01391
360.116	2.18473
360.328	0.36068
360.541	2.10102
360.753	0.69921
360.966	1.01702
361.179	1.13738
361.391	1.06
361.604	0.71701
361.816	1.11961
362.029	0.91413
362.241	0.74162
362.454	0.95823
362.666	0.75583
362.879	1.45153
363.091	1.13334
363.304	0.85035
363.516	1.50579
363.728	0.63272
363.941	1.74243
364.153	1.01126
364.366	-0.12321
364.578	0.66987
364.79	1.64491
365.003	1.27232
365.215	0.99579
365.427	1.72953
365.639	2.13718
365.852	1.53204
366.064	3.09327
366.276	1.115
366.488	1.72742
366.701	1.07099
366.913	1.30774
367.125	1.17493
367.337	0.83935
367.549	1.0075
367.762	1.54107
367.974	1.50011
368.186	0.72624
368.398	2.0126
368.61	1.83369
368.822	1.91267
369.034	1.39642
369.246	1.71297
369.458	3.58556
369.67	0.75344
369.882	2.67817
370.094	0.12974
370.306	2.69822
370.518	1.25579
370.73	0.74417
370.942	0.81223
371.154	1.22288
371.366	0.96421
371.578	1.38017
371.79	0.73022
372.002	2.1649
372.214	2.60144
372.425	1.49081
372.637	2.17791
372.849	1.4302
373.061	-0.01481
373.273	1.62984
373.484	1.5528
373.696	1.97063
373.908	-0.04779
374.12	2.16169
374.331	1.5518
374.543	0.80742
374.755	0.69606
374.967	1.49227
375.178	1.79562
375.39	1.16332
375.602	1.39287
375.813	0.36021
376.025	0.52879
376.236	1.41082
376.448	1.41608
376.66	0.87623
376.871	0.91202
377.083	2.2048
377.294	2.0855
377.506	0.98017
377.717	2.25367
377.929	1.39364
378.14	0.73757
378.352	1.50092
378.563	1.34592
378.775	2.18547
378.986	0.74324
379.197	1.17557
379.409	0.92383
379.62	1.89531
379.832	1.65751
380.043	1.07707
380.254	1.29156
380.466	0.58211
380.677	3.32983
380.888	2.80199
381.1	2.9852
381.311	2.86666
381.522	1.18044
381.733	3.24414
381.945	1.12983
382.156	1.50745
382.367	0.86632
382.578	3.18283
382.789	3.08692
383.001	1.02285
383.212	2.13179
383.423	2.212
383.634	2.17777
383.845	1.57094
384.056	1.03344
384.267	1.26431
384.478	1.21044
384.69	0.53719
384.901	1.52724
385.112	1.49162
385.323	2.30922
385.534	1.58626
385.745	1.41654
385.956	1.47123
386.167	0.67391
386.378	1.49184
386.588	0.46784
386.799	0.88901
387.01	0.14505
387.221	1.77414
387.432	1.01636
387.643	2.48912
387.854	1.08833
388.065	1.02928
388.275	1.13171
388.486	0.94921
388.697	1.0864
388.908	0.982
389.119	2.05223
389.329	2.25901
389.54	1.25121
389.751	1.49286
389.962	2.05485
390.172	1.45946
390.383	0.85439
390.594	0.84014
390.804	0.81064
391.015	0.77354
391.226	1.21813
391.436	1.44887
391.647	1.38973
391.858	1.58553
392.068	0.17852
392.279	0.35858
392.489	1.13379
392.7	1.97191
392.91	0.52578
393.121	0.70253
393.331	1.41984
393.542	1.90918
393.752	1.53042
393.963	1.34629
394.173	1.12389
394.384	1.4735
394.594	1.14238
394.804	0.41618
395.015	1.2066
395.225	1.41556
395.436	0.46558
395.646	1.51607
395.856	0.58804
396.067	0.41597
396.277	1.86285
396.487	1.50134
396.697	1.38211
396.908	1.51332
397.118	1.62772
397.328	1.31981
397.538	1.92657
397.749	0.60759
397.959	1.66632
398.169	1.71696
398.379	0.38912
398.589	1.65056
398.8	1.24569
399.01	1.01578
399.22	1.05646
399.43	2.68246
399.64	0.96549
399.85	1.7276
400.06	1.10962
400.27	0.74226
400.48	1.29024
400.69	2.3735
400.9	0.89354
401.11	0.785
401.32	1.82098
401.53	0.9893
401.74	2.35554
401.95	1.76063
402.16	0.37859
402.37	1.30252
402.58	0.87185
402.79	1.68143
403	1.96623
403.209	0.95404
403.419	1.87813
403.629	0.78313
403.839	1.77624
404.049	1.71832
404.258	0.73826
404.468	0.63795
404.678	1.42219
404.888	1.66676
405.097	0.52998
405.307	1.12804
405.517	1.52455
405.727	1.26407
405.936	1.05943
406.146	1.40452
406.356	1.9697
406.565	1.23682
406.775	0.78507
406.984	0.90669
407.194	2.22021
407.404	1.21664
407.613	1.55969
407.823	1.73687
408.032	1.75751
408.242	1.94649
408.451	0.90325
408.661	1.24782
408.87	2.43124
409.08	0.8554
409.289	1.52453
409.499	1.39073
409.708	1.43489
409.918	0.19223
410.127	1.27521
410.336	2.36682
410.546	1.67816
410.755	0.99952
410.964	1.10631
411.174	0.83971
411.383	1.58891
411.592	1.65867
411.802	0.7036
412.011	1.91248
412.22	1.24271
412.429	2.42611
412.639	2.26233
412.848	2.11629
413.057	2.15303
413.266	2.19826
413.475	1.3846
413.685	1.87581
413.894	2.05925
414.103	2.18783
414.312	1.92189
414.521	1.3524
414.73	1.47249
414.939	2.86916
415.148	1.81932
415.357	1.61822
415.566	1.17976
415.776	1.23694
415.985	1.07986
416.194	1.95642
416.403	2.31774
416.611	0.64793
416.82	1.02938
417.029	1.37277
417.238	0.98242
417.447	0.73023
417.656	0.98863
417.865	0.78939
418.074	0.91171
418.283	1.11244
418.492	1.5323
418.7	1.46433
418.909	1.98727
419.118	1.34658
419.327	1.46917
419.536	1.27155
419.744	0.89568
419.953	1.81131
420.162	1.79955
420.371	0.89135
420.579	0.82284
420.788	1.66553
420.997	1.59573
421.205	1.69762
421.414	1.46102
421.623	1.27913
421.831	1.07557
422.04	1.70628
422.249	1.02399
422.457	1.61365
422.666	1.03199
422.874	1.83434
423.083	1.88412
423.291	1.83265
423.5	1.38414
423.708	1.69629
423.917	1.9012
424.125	1.59396
424.334	1.2881
424.542	2.86111
424.751	2.22185
424.959	2.0414
425.167	2.22787
425.376	2.18291
425.584	1.52536
425.793	1.77202
426.001	1.13836
426.209	1.90361
426.418	1.1888
426.626	1.27475
426.834	1.0789
427.042	1.52028
427.251	1.20031
427.459	2.03568
427.667	1.60763
427.875	1.01441
428.084	1.33675
428.292	2.36004
428.5	1.88466
428.708	1.23479
428.916	1.10355
429.124	1.78587
429.333	1.39408
429.541	1.46267
429.749	1.61773
429.957	1.57923
430.165	3.05857
430.373	0.93593
430.581	1.79984
430.789	2.43839
430.997	1.31998
431.205	1.33405
431.413	1.73383
431.621	1.43019
431.829	2.01911
432.037	1.47243
432.245	1.88552
432.453	1.83997
432.661	1.42727
432.869	2.65973
433.076	1.02095
433.284	1.46115
433.492	1.84391
433.7	2.12582
433.908	1.31573
434.116	1.6543
434.323	1.62748
434.531	1.51968
434.739	1.86079
434.947	2.14433
435.154	1.95545
435.362	1.71233
435.57	1.54187
435.778	1.47388
435.985	1.92117
436.193	1.52374
436.401	2.36387
436.608	1.77229
436.816	1.50597
437.023	2.58754
437.231	2.57017
437.439	1.88339
437.646	2.02777
437.854	1.93764
438.061	2.06848
438.269	1.67459
438.476	2.10409
438.684	1.72169
438.891	1.47471
439.099	1.24402
439.306	0.98835
439.514	1.1875
439.721	1.81043
439.929	1.46541
440.136	2.00154
440.343	1.95227
440.551	1.67567
440.758	3.08693
440.965	2.13105
441.173	1.86788
441.38	1.49381
441.587	1.94436
441.795	1.50414
442.002	1.8451
442.209	1.83274
442.416	2.14516
442.624	2.02993
442.831	1.96027
443.038	1.47577
443.245	1.23187
443.452	1.60828
443.66	2.17368
443.867	1.44448
444.074	1.53829
444.281	1.40617
444.488	1.7077
444.695	1.70047
444.902	1.53082
445.109	2.06382
445.316	1.67409
445.523	1.51293
445.73	1.39603
445.937	1.94239
446.144	2.25742
446.351	2.21616
446.558	1.68029
446.765	2.57801
446.972	2.617
447.179	1.93002
447.386	2.86427
447.593	1.83303
447.8	2.60332
448.007	1.73149
448.214	1.91921
448.42	1.48119
448.627	2.26268
448.834	1.65364
449.041	1.69857
449.248	1.65993
449.454	2.24293
449.661	2.81825
449.868	1.73295
450.075	1.66339
450.281	0.94907
450.488	1.29961
450.695	1.52976
450.901	1.50384
451.108	1.6948
451.315	2.34371
451.521	1.89831
451.728	2.47785
451.935	1.52592
452.141	1.77131
452.348	1.93555
452.554	1.72796
452.761	1.59303
452.967	2.66739
453.174	1.9851
453.38	2.00165
453.587	1.31697
453.793	1.94112
454	2.57021
454.206	3.01761
454.413	2.50957
454.619	2.12985
454.825	1.57958
455.032	2.31348
455.238	2.47862
455.445	1.34589
455.651	2.01652
455.857	1.09193
456.064	1.78851
456.27	1.76758
456.476	1.85231
456.682	1.3035
456.889	2.23085
457.095	2.24174
457.301	3.4617
457.507	2.0297
457.714	1.99229
457.92	1.89067
458.126	1.56655
458.332	1.79119
458.538	1.57727
458.744	1.65457
458.951	1.6502
459.157	3.01064
459.363	1.99775
459.569	1.87547
459.775	2.53324
459.981	1.65009
460.187	2.04796
460.393	2.47918
460.599	2.95533
460.805	2.22851
461.011	2.01472
461.217	2.43951
461.423	2.53178
461.629	1.874
461.835	2.29465
462.041	1.88355
462.247	2.85435
462.453	1.89362
462.658	2.09967
462.864	2.34759
463.07	2.33215
463.276	2.24312
463.482	2.28549
463.688	2.6857
463.893	1.96939
464.099	2.02285
464.305	2.93546
464.511	1.80098
464.716	2.0856
464.922	2.41146
465.128	1.76442
465.333	3.10721
465.539	2.52372
465.745	1.92867
465.95	2.25488
466.156	3.64137
466.362	2.85838
466.567	2.12062
466.773	1.90598
466.978	3.01033
467.184	1.70379
467.389	1.11313
467.595	2.46492
467.8	1.75118
468.006	2.98546
468.211	2.76615
468.417	1.59987
468.622	2.41648
468.828	2.71624
469.033	2.42309
469.239	3.73916
469.444	2.00043
469.649	2.86157
469.855	2.13644
470.06	2.21442
470.266	1.87744
470.471	2.58782
470.676	2.45593
470.881	1.48867
471.087	2.85224
471.292	3.78193
471.497	1.59366
471.703	2.12513
471.908	1.96764
472.113	2.29045
472.318	2.83007
472.523	1.75527
472.729	2.48939
472.934	2.6252
473.139	1.97935
473.344	2.60247
473.549	2.82486
473.754	1.98001
473.959	3.7383
474.164	1.95403
474.369	2.26505
474.575	2.82746
474.78	2.41155
474.985	2.01984
475.19	1.35854
475.395	1.86252
475.6	2.26597
475.804	3.01047
476.009	2.14333
476.214	2.3482
476.419	2.13913
476.624	1.40854
476.829	1.75289
477.034	2.57886
477.239	1.78362
477.444	2.56724
477.648	2.41856
477.853	2.51736
478.058	2.06106
478.263	1.76889
478.468	1.56167
478.672	1.67155
478.877	2.79675
479.082	2.97649
479.287	2.2912
479.491	2.21172
479.696	1.65413
479.901	2.5522
480.105	2.52323
480.31	1.85058
480.515	2.0642
480.719	3.19806
480.924	1.8135
481.128	1.54687
481.333	2.1437
481.538	2.16352
481.742	1.96278
481.947	2.4516
482.151	2.59551
482.356	2.51551
482.56	3.1486
482.765	3.29117
482.969	3.98417
483.174	4.44989
483.378	5.43583
483.582	5.3128
483.787	6.08389
483.991	5.86504
484.196	6.22337
484.4	6.03965
484.604	6.82249
484.809	5.52944
485.013	5.4944
485.217	4.9983
485.422	4.41857
485.626	4.03128
485.83	3.77701
486.034	3.60164
486.239	3.72902
486.443	3.71266
486.647	3.50459
486.851	4.11219
487.055	4.50709
487.26	3.98518
487.464	4.3023
487.668	3.88709
487.872	3.94171
488.076	4.44163
488.28	4.12995
488.484	3.78804
488.688	3.75547
488.892	3.92797
489.096	3.78275
489.3	3.30894
489.504	3.21179
489.708	3.22544
489.912	3.19801
490.116	3.20109
490.32	2.51292
490.524	3.04309
490.728	3.22258
490.932	3.16138
491.136	3.1134
491.34	3.87315
491.544	3.94668
491.748	3.61611
491.951	3.79197
492.155	3.42338
492.359	3.67256
492.563	3.03183
492.767	2.92167
492.97	2.82313
493.174	2.4568
493.378	2.42423
493.582	1.83353
493.785	2.1157
493.989	2.20135
494.193	2.29203
494.396	2.06995
494.6	2.599
494.804	2.30683
495.007	1.85871
495.211	1.99202
495.414	2.16077
495.618	2.36327
495.822	2.86903
496.025	2.25014
496.229	2.53119
496.432	1.79092
496.636	2.25069
496.839	1.99396
497.043	2.92045
497.246	2.30271
497.45	1.98503
497.653	2.11517
497.856	2.25379
498.06	1.6506
498.263	2.06262
498.467	1.8517
498.67	2.56919
498.873	2.32716
499.077	2.09191
499.28	2.07293
499.483	2.34964
499.686	2.47887
499.89	2.46246
500.093	2.67509
500.296	1.86621
500.499	2.96607
500.703	2.30832
500.906	2.45946
501.109	3.23295
501.312	2.38624
501.515	2.26514
501.719	2.4489
501.922	2.98504
502.125	2.46306
502.328	2.32688
502.531	1.75431
502.734	2.35328
502.937	1.40096
503.14	2.41459
503.343	1.7636
503.546	2.03939
503.749	1.86737
503.952	2.66463
504.155	1.82629
504.358	2.44437
504.561	2.30537
504.764	1.66349
504.967	2.19272
505.17	2.27418
505.373	3.0207
505.576	2.41604
505.778	2.59153
505.981	1.92437
506.184	2.85446
506.387	1.63408
506.59	3.25657
506.793	2.84113
506.995	2.48297
507.198	1.40438
507.401	2.42921
507.604	2.46312
507.806	1.73938
508.009	1.92431
508.212	2.50548
508.414	1.86668
508.617	1.89555
508.82	2.01838
509.022	2.81795
509.225	2.26695
509.427	1.48328
509.63	2.85028
509.833	2.16512
510.035	2.03413
510.238	1.45451
510.44	2.81475
510.643	1.29105
510.845	3.28671
511.048	2.37595
511.25	1.97177
511.453	2.12174
511.655	2.33402
511.858	2.01654
512.06	2.57293
512.262	2.25516
512.465	2.53421
512.667	1.75828
512.869	1.68248
513.072	2.34747
513.274	2.56935
513.476	2.40431
513.679	2.67313
513.881	1.6737
514.083	3.07708
514.286	1.87016
514.488	2.04391
514.69	1.84671
514.892	1.73643
515.094	2.46748
515.297	2.01119
515.499	2.37521
515.701	1.89058
515.903	3.11307
516.105	3.07911
516.307	2.62498
516.509	1.3512
516.711	1.65423
516.913	2.33197
517.116	2.13032
517.318	1.93842
517.52	2.6728
517.722	2.35869
517.924	1.51332
518.126	2.22141
518.328	1.75491
518.529	2.35527
518.731	3.11405
518.933	1.75149
519.135	2.05167
519.337	2.75797
519.539	2.26529
519.741	1.35192
519.943	1.95388
520.145	2.02057
520.346	2.335
520.548	1.93349
520.75	2.25347
520.952	1.96341
521.153	2.19941
521.355	2.49194
521.557	1.7689
521.759	2.37364
521.96	2.23107
522.162	1.74617
522.364	2.76187
522.565	1.96848
522.767	2.57055
522.969	2.82317
523.17	2.48482
523.372	2.58484
523.573	1.81373
523.775	2.11217
523.977	1.87261
524.178	3.2658
524.38	1.90233
524.581	2.46526
524.783	2.00532
524.984	2.40996
525.186	2.05195
525.387	2.45834
525.589	2.17906
525.79	2.04943
525.991	1.80272
526.193	2.43016
526.394	1.61157
526.596	2.52996
526.797	2.40142
526.998	2.11147
527.2	1.81311
527.401	2.97193
527.602	2.81108
527.803	3.89227
528.005	3.68778
528.206	4.06755
528.407	4.34172
528.608	3.97865
528.81	4.18357
529.011	3.7069
529.212	4.68832
529.413	4.0511
529.614	3.79259
529.815	3.92508
530.017	3.60887
530.218	3.17563
530.419	2.61424
530.62	2.8311
530.821	2.7094
531.022	1.87574
531.223	2.62874
531.424	2.77198
531.625	2.52043
531.826	2.34026
532.027	2.4478
532.228	3.16355
532.429	2.64973
532.63	2.56072
532.831	2.8969
533.032	2.93112
533.233	3.25135
533.433	3.15523
533.634	3.27418
533.835	2.80754
534.036	2.49199
534.237	2.65468
534.438	2.36316
534.638	1.97559
534.839	2.06944
535.04	2.4167
535.241	1.94409
535.441	2.7405
535.642	2.35221
535.843	1.71583
536.043	1.74946
536.244	1.91377
536.445	2.06889
536.645	2.70051
536.846	2.23608
537.047	2.95595
537.247	1.88233
537.448	2.03547
537.648	1.98836
537.849	2.10686
538.049	2.0321
538.25	2.45414
538.451	2.29542
538.651	1.79096
538.851	2.48125
539.052	2.81224
539.252	2.51581
539.453	2.33317
539.653	2.21952
539.854	2.19914
540.054	2.01602
540.254	2.84747
540.455	2.99014
540.655	2.42533
540.855	2.97024
541.056	3.37704
541.256	3.06133
541.456	3.70879
541.657	3.04623
541.857	3.85775
542.057	2.71436
542.257	2.62012
542.458	3.29024
542.658	3.62418
542.858	2.35392
543.058	3.09759
543.258	2.69859
543.458	1.91974
543.659	1.75751
543.859	2.52497
544.059	2.3852
544.259	2.08706
544.459	2.63446
544.659	1.92395
544.859	2.32935
545.059	1.94857
545.259	2.38136
545.459	2.32685
545.659	2.52861
545.859	2.28083
546.059	2.3955
546.259	1.82982
546.459	1.44953
546.659	1.73349
546.859	2.43501
547.059	2.33311
547.258	2.3418
547.458	2.41704
547.658	1.6227
547.858	1.74981
548.058	2.32467
548.258	2.19241
548.457	1.85534
548.657	3.69177
548.857	2.20464
549.057	2.92784
549.256	2.60603
549.456	2.27059
549.656	1.47882
549.855	3.7633
550.055	2.29165
550.255	3.48093
550.454	2.84234
550.654	3.26593
550.853	3.53442
551.053	3.19458
551.253	2.7766
551.452	3.10492
551.652	1.78406
551.851	1.52794
552.051	2.26082
552.25	2.21528
552.45	2.04559
552.649	2.14458
552.849	1.92805
553.048	2.56175
553.248	2.759
553.447	1.91996
553.646	2.87711
553.846	4.04829
554.045	3.28917
554.244	1.8205
554.444	3.36272
554.643	1.93201
554.842	3.56743
555.042	3.86198
555.241	2.3266
555.44	2.10456
555.64	2.73048
555.839	3.43317
556.038	2.97404
556.237	2.33048
556.436	2.60054
556.636	2.94524
556.835	2.20989
557.034	3.65149
557.233	2.67314
557.432	1.98814
557.631	3.2855
557.83	2.59737
558.029	2.38291
558.228	2.50511
558.427	2.17733
558.626	3.00731
558.825	2.15229
559.024	2.72983
559.223	3.99285
559.422	2.82036
559.621	3.12514
559.82	1.39993
560.019	2.69795
560.218	2.28356
560.417	1.02697
560.616	2.40631
560.815	4.80073
561.014	1.72245
561.212	3.50112
561.411	2.73737
561.61	1.75929
561.809	2.59968
562.008	3.94918
562.206	2.57269
562.405	2.93773
562.604	2.62642
562.803	2.82107
563.001	2.7929
563.2	1.83419
563.399	3.25277
563.597	1.97021
563.796	2.85001
563.995	1.81189
564.193	3.25964
564.392	2.43075
564.59	4.19974
564.789	1.42117
564.988	2.55365
565.186	2.74341
565.385	2.45066
565.583	2.25686
565.782	2.41349
565.98	2.27988
566.179	2.39049
566.377	1.69562
566.575	1.80967
566.774	3.17236
566.972	3.09936
567.171	3.62146
567.369	3.46564
567.567	2.5451
567.766	2.87814
567.964	1.35153
568.162	3.05219
568.361	3.48773
568.559	2.50975
568.757	2.85163
568.956	2.72988
569.154	2.60946
569.352	3.31017
569.55	2.48894
569.748	2.56015
569.947	2.04372
570.145	2.13036
570.343	1.89572
570.541	3.79439
570.739	1.62585
570.937	2.64331
571.135	2.84148
571.333	4.1083
571.532	3.87026
571.73	2.64519
571.928	3.15093
572.126	2.96621
572.324	2.09142
572.522	3.21693
572.72	4.12498
572.918	2.44941
573.116	2.68552
573.313	2.34882
573.511	2.36004
573.709	2.39478
573.907	2.94761
574.105	2.28046
574.303	1.5897
574.501	1.53298
574.699	2.81375
574.896	2.71426
575.094	3.00539
575.292	1.68955
575.49	3.18266
575.688	2.5178
575.885	3.53531
576.083	4.09887
576.281	2.80032
576.478	2.19221
576.676	3.08577
576.874	1.95961
577.071	2.62914
577.269	4.19307
577.467	2.54199
577.664	2.88489
577.862	3.32192
578.059	2.39887
578.257	3.4567
578.455	2.71688
578.652	2.88045
578.85	1.60006
579.047	3.07851
579.245	2.78091
579.442	3.12252
579.64	2.91051
579.837	1.71181
580.034	4.86713
580.232	2.76855
580.429	2.31228
580.627	3.46285
580.824	3.95737
581.021	3.51305
581.219	2.89816
581.416	2.54417
581.613	4.1155
581.811	4.00319
582.008	2.50879
582.205	3.72091
582.402	3.49668
582.6	4.27531
582.797	3.34658
582.994	3.55946
583.191	3.89007
583.388	3.22529
583.586	3.76141
583.783	4.35634
583.98	2.3896
584.177	3.34524
584.374	1.10499
584.571	3.02824
584.768	3.32646
584.965	2.87423
585.162	3.98391
585.359	4.4743
585.556	3.24609
585.753	3.7006
585.95	2.15966
586.147	2.60677
586.344	3.76982
586.541	3.15624
586.738	2.45904
586.935	3.23166
587.132	2.63732
587.329	4.2017
587.526	3.20031
587.722	7.49736
587.919	2.18303
588.116	3.56148
588.313	4.41583
588.51	5.02084
588.706	3.09859
588.903	3.68609
589.1	4.19026
589.297	5.80177
589.493	3.14854
589.69	3.76767
589.887	2.69856
590.083	2.37162
590.28	2.54506
590.477	4.11262
590.673	3.60927
590.87	4.26148
591.067	2.65675
591.263	3.63752
591.46	3.64485
591.656	3.11518
591.853	4.82922
592.049	2.76055
592.246	2.87821
592.442	4.34615
592.639	4.38149
592.835	2.45346
593.032	3.59689
593.228	2.23171
593.425	2.11382
593.621	2.20267
593.817	3.52429
594.014	2.79024
594.21	3.59862
594.406	4.41157
594.603	3.40581
594.799	2.93999
594.995	1.40402
595.192	4.15937
595.388	2.8378
595.584	2.76983
595.78	2.09499
595.977	5.47712
596.173	4.57573
596.369	2.8901
596.565	2.20455
596.761	2.3127
596.957	3.85285
597.154	2.30763
597.35	2.51021
597.546	2.41107
597.742	3.21058
597.938	3.15197
598.134	2.25874
598.33	3.19692
598.526	4.11357
598.722	3.7071
598.918	4.7343
599.114	3.97625
599.31	2.17936
599.506	3.65611
599.702	2.88133
599.898	3.72275
600.094	4.30725
600.29	4.23309
600.485	4.12854
600.681	3.15744
600.877	5.05541
601.073	3.68973
601.269	5.6894
601.465	4.96413
601.66	2.71636
601.856	1.94361
602.052	5.5117
602.248	3.2635
602.443	1.61506
602.639	2.19158
602.835	2.74177
603.03	2.52276
603.226	3.98815
603.422	2.46683
603.617	2.96232
603.813	2.72081
604.009	2.39227
604.204	3.98054
604.4	1.74583
604.595	3.80686
604.791	2.1124
604.986	3.15304
605.182	2.11761
605.377	2.49657
605.573	2.55651
605.768	3.05713
605.964	3.46547
606.159	3.76007
606.355	4.12184
606.55	2.83984
606.746	4.15609
606.941	3.51137
607.136	4.95432
607.332	6.00597
607.527	2.48137
607.722	3.92713
607.918	3.39806
608.113	2.64593
608.308	4.16371
608.503	3.90288
608.699	3.6825
608.894	3.79614
609.089	2.63342
609.284	3.60781
609.479	2.73316
609.675	3.65322
609.87	2.94085
610.065	3.55811
610.26	4.00787
610.455	3.79163
610.65	3.23096
610.845	3.67735
611.04	4.07566
611.235	3.11033
611.43	3.41328
611.625	2.4991
611.82	4.73826
612.015	3.02714
612.21	5.36209
612.405	2.45735
612.6	5.59332
612.795	5.34948
612.99	4.83055
613.185	2.78335
613.38	3.1408
613.575	4.1927
613.77	6.85349
613.965	2.4637
614.159	3.19849
614.354	5.22336
614.549	5.12167
614.744	4.38359
614.938	2.78578
615.133	2.69992
615.328	5.58392
615.523	5.6215
615.717	7.08821
615.912	3.62785
616.107	4.14435
616.301	3.64411
616.496	3.2733
616.691	6.10253
616.885	4.80543
617.08	6.87975
617.274	5.33231
617.469	6.39512
617.664	4.95346
617.858	3.63382
618.053	4.38248
618.247	3.82475
618.442	1.951
618.636	5.61734
618.831	3.49397
619.025	3.49789
619.219	7.48424
619.414	0.86302
619.608	4.0549
619.803	3.16532
619.997	6.68106
620.191	5.37699
620.386	4.56905
620.58	4.16199
620.774	2.39869
620.969	2.4295
621.163	4.44308
621.357	2.88651
621.551	4.03108
621.746	4.28407
621.94	4.09709
622.134	8.15995
622.328	6.77215
622.522	2.69467
622.716	5.54283
622.911	5.2918
623.105	5.04654
623.299	4.47396
623.493	7.85026
623.687	3.32738
623.881	3.64367
624.075	5.15552
624.269	5.65048
624.463	2.31342
624.657	2.46305
624.851	5.02052
625.045	5.20127
625.239	5.27248
625.433	3.27927
625.627	6.29295
625.821	3.499
626.015	3.10438
626.209	3.93288
626.403	2.00273
626.596	4.37226
626.79	4.72019
626.984	2.54979
627.178	4.63559
627.372	4.39781
627.565	4.82973
627.759	2.45836
627.953	2.83056
628.147	4.37786
628.34	4.94844
628.534	6.53071
628.728	3.96228
628.921	5.424
629.115	5.17649
629.309	5.22344
629.502	5.60688
629.696	4.27508
629.89	4.32271
630.083	4.6601
630.277	4.74771
630.47	6.52317
630.664	4.07488
630.857	2.78454
631.051	5.52534
631.244	5.93879
631.438	5.72559
631.631	3.77419
631.825	6.17291
632.018	5.11519
632.212	6.76808
632.405	6.08886
632.598	3.57928
632.792	4.79188
632.985	1.73937
633.178	3.7551
633.372	4.51736
633.565	4.34018
633.758	5.9719
633.952	3.4864
634.145	3.50251
634.338	4.34232
634.531	3.91131
634.724	3.39202
634.918	4.60009
635.111	4.09676
635.304	3.76888
635.497	7.46315
635.69	4.92859
635.883	5.96053
636.077	3.0766
636.27	5.06114
636.463	5.26696
636.656	4.94776
636.849	4.084
637.042	5.19233
637.235	7.69128
637.428	5.73297
637.621	5.30821
637.814	7.06127
638.007	6.92779
638.2	7.31319
638.393	7.71018
638.586	3.22326
638.778	4.43572
638.971	5.08466
639.164	7.29033
639.357	5.78217
639.55	7.38182
639.743	6.01616
639.935	6.06516
640.128	8.5135
640.321	6.40226
640.514	5.53884
640.707	8.9755
640.899	6.4929
641.092	3.24343
641.285	21.29346
641.477	2.3746
641.67	9.03034
641.863	7.31183
642.055	5.9475
642.248	5.7526
642.441	5.39078
642.633	6.52333
642.826	6.8029
643.018	7.49537
643.211	8.27865
643.403	9.01813
643.596	9.01838
643.788	8.88817
643.981	4.69252
644.173	6.97345
644.366	5.04543
644.558	3.12518
644.751	7.11798
644.943	4.01657
645.135	8.58425
645.328	8.54818
645.52	7.19002
645.712	7.32935
645.905	10.99794
646.097	4.16534
646.289	6.61924
646.482	9.42638
646.674	4.72327
646.866	7.5341
647.058	6.5945
647.251	4.41314
647.443	5.03947
647.635	5.14588
647.827	4.42592
648.019	4.05668
648.211	5.79169
648.404	6.21298
648.596	8.77559
648.788	6.68618
648.98	6.35095
649.172	6.88843
649.364	6.67277
649.556	3.53582
649.748	9.81033
649.94	4.65196
650.132	7.23797
650.324	4.77008
650.516	4.75134
650.708	7.68312
650.9	3.79272
651.092	3.38165
651.284	3.76099
651.476	4.03075
651.667	6.9641
651.859	8.48893
652.051	5.59175
652.243	6.49051
652.435	5.46106
652.627	6.73241
652.818	6.58496
653.01	3.43731
653.202	4.78225
653.394	5.69088
653.585	6.84544
653.777	13.54318
653.969	9.11838
654.16	8.20002
654.352	4.45278
654.544	6.24299
654.735	8.34383
654.927	6.16221
655.118	8.93922
655.31	7.78934
655.502	8.39372
655.693	5.69845
655.885	7.10683
656.076	9.2814
656.268	6.75275
656.459	8.83878
656.651	9.02915
656.842	5.56828
657.034	5.17873
657.225	7.77155
657.416	9.03767
657.608	8.69776
657.799	6.33766
657.99	8.13708
658.182	4.73868
658.373	4.95457
658.564	8.18639
658.756	6.34638
658.947	5.46481
659.138	4.33596
659.33	5.01092
659.521	4.52648
659.712	5.39386
659.903	5.19126
660.094	4.91677
660.286	3.30356
660.477	9.01208
660.668	6.90145
660.859	5.93954
661.05	3.89604
661.241	7.14474
661.432	6.89557
661.623	5.9134
661.814	5.6425
662.006	3.69682
662.197	6.28379
662.388	8.65181
662.579	7.28724
662.77	9.00068
662.96	11.62311
663.151	8.70631
663.342	3.56613
663.533	8.00514
663.724	6.4793
663.915	10.46302
664.106	7.11965
664.297	10.6594
664.488	8.0334
664.678	6.13076
664.869	8.55771
665.06	8.84653
665.251	7.40405
665.442	8.54489
665.632	5.32138
665.823	11.55804
666.014	2.17368
666.204	8.35854
666.395	9.54958
666.586	12.1443
666.776	8.72035
666.967	11.03749
667.158	7.20246
667.348	10.77927
667.539	5.41709
667.729	9.33042
667.92	6.13152
668.111	9.23269
668.301	8.92645
668.492	6.38027
668.682	7.49953
668.873	7.02119
669.063	5.18652
669.253	7.45625
669.444	10.4828
669.634	7.0059
669.825	10.72334
670.015	9.62699
670.206	6.16206
670.396	11.8444
670.586	6.70688
670.777	8.85521
670.967	3.44658
671.157	7.29941
671.347	6.2925
671.538	10.80313
671.728	9.30823
671.918	11.33556
672.108	9.68734
672.299	7.38149
672.489	8.08091
672.679	6.54084
672.869	9.26548
673.059	12.26866
673.249	8.81082
673.44	5.83967
673.63	7.11927
673.82	9.86154
674.01	5.64938
674.2	9.31241
674.39	13.87701
674.58	9.35611
674.77	8.51618
674.96	7.55695
675.15	17.1395
675.34	10.27159
675.53	8.24293
675.72	6.48825
675.91	4.47531
676.099	12.18695
676.289	13.548
676.479	10.57467
676.669	6.94003
676.859	9.24826
677.049	6.60203
677.238	8.3485
677.428	11.76069
677.618	9.19131
677.808	12.71845
677.997	9.48281
678.187	6.17625
678.377	7.77238
678.567	6.7286
678.756	7.2188
678.946	7.60232
679.136	5.06491
679.325	6.20744
679.515	5.90899
679.704	5.1167
679.894	9.51825
680.084	8.35282
680.273	10.71199
680.463	5.46171
680.652	5.61395
680.842	7.52423
681.031	9.50078
681.221	5.63255
681.41	8.33202
681.6	7.34129
681.789	9.35868
681.978	10.67714
682.168	9.00504
682.357	8.47466
682.547	9.23448
682.736	8.89417
682.925	10.94369
683.115	11.05856
683.304	9.85641
683.493	8.71644
683.682	9.80703
683.872	9.56152
684.061	11.67371
684.25	9.69435
684.439	14.57723
684.629	10.65093
684.818	17.29874
685.007	9.01481
685.196	8.0001
685.385	13.87603
685.574	10.25386
685.763	9.87103
685.952	9.70133
686.142	6.38634
686.331	12.48404
686.52	5.47796
686.709	14.22881
686.898	14.23614
687.087	10.73048
687.276	13.27005
687.465	12.43268
687.654	8.23557
687.842	13.23466
688.031	6.00325
688.22	12.85883
688.409	10.05354
688.598	9.96424
688.787	15.58177
688.976	9.74047
689.165	14.86277
689.353	8.50247
689.542	10.66228
689.731	12.99599
689.92	15.83479
690.108	12.25029
690.297	9.14469
690.486	10.38481
690.675	11.42307
690.863	14.51892
691.052	14.19485
691.241	10.91078
691.429	10.95395
691.618	13.65767
691.806	7.09192
691.995	9.42805
692.184	10.14987
692.372	9.40406
692.561	10.32202
692.749	10.79673
692.938	20.09701
693.126	11.88887
693.315	9.85186
693.503	12.49906
693.692	13.09986
693.88	13.24238
694.068	16.44463
694.257	11.22737
694.445	12.71215
694.634	6.09352
694.822	13.49463
695.01	14.18496
695.199	17.46191
695.387	15.32631
695.575	14.34546
695.763	10.5621
695.952	10.34611
696.14	6.28868
696.328	9.16925
696.516	11.6531
696.705	11.92616
696.893	11.43206
697.081	6.23594
697.269	13.14376
697.457	7.94422
697.645	7.03028
697.833	12.46541
698.021	7.86433
698.21	8.4114
698.398	8.98954
698.586	6.46844
698.774	5.93265
698.962	9.114
699.15	6.20639
699.338	5.09987
699.526	10.08468
699.714	7.24799
699.901	7.29929
700.089	10.88413
700.277	7.49128
700.465	8.95836
700.653	11.63365
700.841	11.40672
701.029	7.84666
701.217	14.18257
701.404	10.19099
701.592	14.04351
701.78	17.53
701.968	9.21417
702.155	10.1395
702.343	7.72422
702.531	15.15595
702.718	12.89649
702.906	9.69716
703.094	9.61486
703.281	15.50158
703.469	10.49423
703.657	15.13207
703.844	22.37325
704.032	17.91647
704.219	10.70533
704.407	13.64894
704.595	17.30121
704.782	13.50462
704.97	11.88342
705.157	11.39343
705.345	18.77088
705.532	23.61
705.719	15.63926
705.907	18.38899
706.094	15.33092
706.282	21.36735
706.469	14.80498
706.656	16.09795
706.844	15.32536
707.031	19.85954
707.218	17.42762
707.406	21.97466
707.593	19.18896
707.78	18.97786
707.968	16.89443
708.155	14.37154
708.342	19.95386
708.529	19.31741
708.716	18.73882
708.904	22.83025
709.091	19.17355
709.278	14.4869
709.465	23.53619
709.652	22.28942
709.839	21.04962
710.026	17.51139
710.213	11.09911
710.4	17.30314
710.587	19.23852
710.774	19.2153
710.961	20.22372
711.148	16.93688
711.335	19.83734
711.522	16.45361
711.709	18.56231
711.896	23.52684
712.083	20.37474
712.27	14.17082
712.457	18.1557
712.644	11.74626
712.831	24.78982
713.017	18.45702
713.204	19.79883
713.391	14.57353
713.578	19.97465
713.765	22.23716
713.951	18.10199
714.138	27.6823
714.325	17.3312
714.512	15.60772
714.698	12.84938
714.885	20.87408
715.072	15.84483
715.258	15.278
715.445	12.93578
715.631	19.12639
715.818	5.97452
716.005	12.72611
716.191	17.53232
716.378	13.26913
716.564	17.00054
716.751	11.10201
716.937	13.37381
717.124	17.98754
717.31	11.23584
717.497	21.97545
717.683	11.80799
717.869	22.37361
718.056	12.95924
718.242	16.99567
718.429	14.12171
718.615	10.03044
718.801	14.56308
718.988	19.6773
719.174	17.18859
719.36	13.71208
719.547	20.93471
719.733	16.48474
719.919	15.94611
720.105	17.57975
720.291	15.29937
720.478	16.56453
720.664	14.84075
720.85	12.97582
721.036	27.27112
721.222	22.5146
721.408	14.7145
721.595	23.18283
721.781	22.84241
721.967	21.39116
722.153	22.5835
722.339	18.62802
722.525	18.12972
722.711	12.01434
722.897	9.59531
723.083	15.19138
723.269	20.85191
723.455	28.32812
723.641	34.19553
723.827	17.19506
724.012	18.13659
724.198	16.51285
724.384	22.38506
724.57	17.47032
724.756	11.15384
724.942	8.21784
725.127	22.35235
725.313	23.14105
725.499	22.25191
725.685	25.80758
725.87	18.09891
726.056	12.83759
726.242	21.90924
726.428	10.69569
726.613	21.08039
726.799	15.80925
726.985	12.13832
727.17	9.96936
727.356	26.78905
727.541	13.07307
727.727	16.09021
727.913	21.00273
728.098	14.57952
728.284	20.18017
728.469	11.46724
728.655	13.73213
728.84	22.47663
729.026	19.91277
729.211	20.0912
729.397	18.39151
729.582	20.75093
729.767	15.97689
729.953	18.68805
730.138	23.43651
730.323	6.81181
730.509	11.82366
730.694	24.18032
730.879	19.83908
731.065	18.26659
731.25	28.10106
731.435	20.28723
731.621	10.85538
731.806	14.62008
731.991	18.2578
732.176	11.76716
732.361	24.19995
732.547	18.38902
732.732	9.94058
732.917	28.3463
733.102	11.87976
733.287	14.39127
733.472	16.56756
733.657	16.59943
733.842	10.8937
734.027	15.04988
734.212	15.87617
734.397	13.48463
734.582	17.31098
734.767	21.10388
734.952	24.292
735.137	6.70416
735.322	24.04612
735.507	18.49259
735.692	18.28294
735.877	28.36276
736.062	27.32001
736.247	19.29713
736.431	17.65127
736.616	24.44185
736.801	20.51826
736.986	17.71826
737.171	13.20829
737.355	13.02705
737.54	24.57619
737.725	18.30852
737.909	32.58218
738.094	16.45549
738.279	20.92417
738.463	17.87731
738.648	21.70845
738.833	20.03459
739.017	30.04123
739.202	17.16543
739.386	17.69153
739.571	14.07306
739.756	22.89819
739.94	18.37813
740.125	21.74996
740.309	15.22149
740.494	22.56776
740.678	19.61758
740.863	21.00267
741.047	19.29715
741.231	27.09756
741.416	15.7566
741.6	26.5748
741.785	14.93102
741.969	23.8999
742.153	27.38933
742.338	8.05026
742.522	18.95294
742.706	23.43114
742.89	12.32771
743.075	18.09158
743.259	25.79939
743.443	25.47298
743.627	25.9204
743.812	31.34159
743.996	11.02568
744.18	18.34438
744.364	16.58994
744.548	33.54253
744.732	17.66146
744.916	23.73514
745.1	22.72169
745.285	17.04965
745.469	23.79542
745.653	29.32121
745.837	13.31467
746.021	33.03737
746.205	27.10993
746.389	20.5307
746.573	18.12582
746.757	28.12121
746.94	16.25547
747.124	26.85705
747.308	13.03857
747.492	26.28261
747.676	14.68185
747.86	35.0826
748.044	17.07748
748.227	11.4415
748.411	44.70475
748.595	21.14189
748.779	15.78942
748.963	22.49024
749.146	19.79216
749.33	15.75395
749.514	15.6412
749.697	27.54552
749.881	15.38152
750.065	14.14107
750.248	20.66844
750.432	33.97461
750.616	20.24132
750.799	13.44039
750.983	35.24854
751.166	36.05315
751.35	11.18561
751.533	23.50988
751.717	31.40395
751.9	29.64968
752.084	18.33362
752.267	15.48402
752.451	15.31671
752.634	19.16745
752.818	23.81262
753.001	26.3963
753.184	27.32449
753.368	22.63232
753.551	2.44985
753.734	15.62033
753.918	36.57456
754.101	16.28814
754.284	25.30714
754.467	17.77446
754.651	16.15732
754.834	14.79988
755.017	27.65343
755.2	27.37922
755.384	14.51284
755.567	25.40313
755.75	26.45433
755.933	18.71158
756.116	26.74694
756.299	16.91146
756.482	14.85571
756.665	24.99002
756.848	21.16223
757.032	23.47363
757.215	12.44835
757.398	16.37045
757.581	15.57985
757.764	39.36727
757.947	20.27671
758.129	25.76508
758.312	5.13733
758.495	19.55506
758.678	18.95444
758.861	18.37185
759.044	34.12944
759.227	15.62639
759.41	16.12307
759.592	25.65966
759.775	20.34298
759.958	26.30351
760.141	13.19175
760.324	36.40666
760.506	30.8965
760.689	26.76708
760.872	35.82313
761.054	23.67984
761.237	19.86284
761.42	21.78728
761.602	25.74085
761.785	23.19713
761.968	28.26587
762.15	32.14514
762.333	20.60831
762.515	24.21277
762.698	18.38116
762.88	26.67125
763.063	24.09937
763.245	28.57119
763.428	16.0694
763.61	17.67708
763.793	12.933
763.975	22.457
764.158	18.50057
764.34	16.74589
764.522	14.56298
764.705	17.7814
764.887	29.55402
765.069	10.95974
765.252	23.48362
765.434	25.0754
765.616	21.29413
765.799	15.826
765.981	24.50166
766.163	15.80155
766.345	28.62756
766.528	16.51982
766.71	8.12209
766.892	21.26029
767.074	29.64948
767.256	18.71419
767.438	32.94619
767.62	22.03779
767.802	39.04474
767.985	25.94598
768.167	34.22429
768.349	18.34736
768.531	26.30147
768.713	24.29501
768.895	28.70066
769.077	25.42085
769.259	43.06488
769.441	58.32182
769.623	28.46415
769.804	32.50725
769.986	32.06398
770.168	39.03525
770.35	48.95969
770.532	36.27565
770.714	39.6311
770.896	39.98839
771.077	14.97213
771.259	41.49253
771.441	37.45742
771.623	43.03376
771.804	56.51381
771.986	17.21883
772.168	25.84112
772.35	41.64587
772.531	59.78757
772.713	34.44978
772.894	45.53194
773.076	34.26293
773.258	26.94968
773.439	48.52531
773.621	53.55438
773.802	21.48372
773.984	26.44785
774.166	38.08517
774.347	51.8927
774.529	42.27567
774.71	13.2228
774.891	33.54046
775.073	28.29491
775.254	47.53314
775.436	27.82761
775.617	57.83915
775.799	29.64649
775.98	49.31455
776.161	53.38984
776.343	55.07737
776.524	31.93132
776.705	30.97441
776.886	15.9217
777.068	36.3886
777.249	85.10715
777.43	59.49938
777.611	20.63367
777.793	29.75685
777.974	55.08862
778.155	28.62525
778.336	21.50956
778.517	63.35689
778.698	26.03308
778.879	15.52947
779.061	7.13132
779.242	39.35515
779.423	38.39673
779.604	28.15294
779.785	29.67906
779.966	38.84443
780.147	47.15419
780.328	46.17398
780.509	65.85273
780.69	45.71231
780.871	27.66779
781.051	18.90073
781.232	35.24082
781.413	37.33404
781.594	30.99895
781.775	29.01573
781.956	26.66772
782.137	12.56713
782.317	28.60813
782.498	36.08879
782.679	34.60411
782.86	36.79688
783.04	25.76867
783.221	34.773
783.402	59.56148
783.583	34.0642
783.763	46.40569
783.944	28.36226
784.124	18.95882
784.305	55.97021
784.486	42.33838
784.666	33.325
784.847	15.90241
785.027	79.56807
785.208	27.20365
785.388	25.09168
785.569	25.70596
785.749	31.15409
785.93	27.89301
786.11	18.45597
786.291	39.88975
786.471	38.35906
786.652	45.73386
786.832	32.72265
787.012	37.04794
787.193	21.12037
787.373	35.5391
787.553	28.19829
787.734	37.19095
787.914	29.6845
788.094	47.0216
788.275	37.52153
788.455	29.98691
788.635	20.18826
788.815	37.87923
788.995	23.3397
789.176	17.78444
789.356	23.98962
789.536	31.14935
789.716	40.09787
789.896	24.97039
790.076	27.89536
790.256	38.9081
790.436	11.18305
790.616	22.52752
790.796	37.276
790.976	30.24917
791.156	25.39801
791.336	40.87014
791.516	37.62311
791.696	29.42743
791.876	18.21194
792.056	37.58681
792.236	46.57296
792.416	43.96672
792.596	37.71848
792.776	38.47442
792.956	41.59703
793.135	57.00766
793.315	21.01979
793.495	48.66249
793.675	42.11974
793.854	44.13074
794.034	45.43138
794.214	19.61753
794.394	44.06601
794.573	49.43071
794.753	35.63519
794.933	24.30163
795.112	35.99524
795.292	47.3429
795.472	56.74812
795.651	20.5216
795.831	34.13942
796.01	29.91009
796.19	32.0648
796.369	34.03197
796.549	38.55177
796.728	31.55457
796.908	19.42848
797.087	21.63902
797.267	32.28547
797.446	21.78664
797.626	38.29599
797.805	39.14622
797.984	24.60333
798.164	42.71962
798.343	24.53854
798.522	37.43834
798.702	34.23653
798.881	20.89908
799.06	29.77569
799.239	13.42179
799.419	23.39913
799.598	56.04704
799.777	40.40515
799.956	47.32241
800.136	29.90326
800.315	24.25062
800.494	37.63009
800.673	45.89726
800.852	43.17895
801.031	47.22978
801.21	41.11908
801.389	27.38545
801.568	37.00562
801.747	58.64173
801.926	32.87503
802.105	52.3997
802.284	26.06545
802.463	56.11375
802.642	37.44973
802.821	38.26477
803	51.7176
803.179	46.75895
803.358	48.66998
803.537	26.91467
803.716	35.59803
803.895	26.50821
804.073	31.65064
804.252	26.40015
804.431	38.86619
804.61	34.45365
804.789	44.26252
804.967	27.62516
805.146	27.67566
805.325	65.98019
805.503	39.0624
805.682	17.17233
805.861	79.88335
806.039	51.89587
806.218	28.03136
806.397	37.92509
806.575	33.98937
806.754	38.79192
806.932	22.7275
807.111	47.91928
807.289	46.05792
807.468	35.14551
807.646	47.48897
807.825	39.56347
808.003	37.09571
808.182	49.29167
808.36	34.52299
808.539	23.92715
808.717	57.10297
808.895	26.55851
809.074	38.11782
809.252	33.29282
809.43	43.59299
809.609	50.84354
809.787	56.345
809.965	29.37251
810.144	37.29838
810.322	32.53466
810.5	40.93077
810.678	31.56253
810.856	66.31761
811.035	52.29243
811.213	43.36578
811.391	53.7986
811.569	38.67479
811.747	83.646
811.925	53.32879
812.103	27.83186
812.281	32.70168
812.459	61.26755
812.637	58.81341
812.816	48.01814
812.994	66.21573
813.171	53.36148
813.349	43.08591
813.527	50.83248
813.705	55.69537
813.883	72.98059
814.061	49.64264
814.239	61.59327
814.417	66.53904
814.595	44.55818
814.773	42.43051
814.95	41.69706
815.128	44.87321
815.306	39.23798
815.484	34.90249
815.662	25.22848
815.839	23.2086
816.017	30.9094
816.195	51.42133
816.372	32.44748
816.55	51.40804
816.728	61.57162
816.905	34.65085
817.083	62.40071
817.261	36.528
817.438	82.72895
817.616	66.10253
817.793	29.44169
817.971	47.70801
818.148	46.51867
818.326	56.80902
818.503	39.83532
818.681	62.44666
818.858	33.37896
819.036	37.48035
819.213	43.0076
819.391	31.01301
819.568	30.63898
819.745	24.90739
819.923	48.07088
820.1	34.14868
820.277	28.19468
820.455	32.54137
820.632	35.55153
820.809	38.23582
820.986	23.53844
821.164	18.49938
821.341	16.31796
821.518	26.84829
821.695	18.14869
821.872	15.35234
822.05	12.8487
822.227	9.26174
822.404	10.30211
822.581	12.22301
822.758	9.13783
822.935	9.39386
823.112	10.99002
823.289	7.97169
823.466	10.82691
823.643	10.00589
823.82	12.79819
823.997	10.39526
824.174	13.35631
824.351	20.05167
824.528	18.23008
824.705	15.70362
824.882	18.54488
825.059	25.45421
825.236	17.21059
825.412	18.05175
825.589	23.31072
825.766	35.82565
825.943	20.71929
826.12	24.83436
826.296	15.8256
826.473	22.89151
826.65	22.68013
826.827	28.1912
827.003	17.17673
827.18	19.923
827.357	22.77041
827.533	18.85941
827.71	9.11821
827.887	16.11998
828.063	19.46455
828.24	15.05041
828.416	22.53342
828.593	17.06335
828.769	26.2124
828.946	27.1859
829.122	28.26506
829.299	27.1278
829.475	15.35626
829.652	26.48796
829.828	47.37213
830.005	27.02094
830.181	39.75685
830.357	28.73273
830.534	42.47142
830.71	31.10111
830.886	42.82367
831.063	41.5939
831.239	54.86413
831.415	24.70647
831.592	55.12032
831.768	31.27601
831.944	29.34958
832.12	60.42847
832.296	56.28812
832.473	46.4393
832.649	30.36792
832.825	47.70981
833.001	26.50063
833.177	40.29296
833.353	36.66337
833.529	19.64482
833.705	32.92501
833.881	20.5074
834.058	18.81689
834.234	21.50112
834.41	21.05885
834.586	15.41695
834.761	19.50219
834.937	22.27644
835.113	23.07213
835.289	19.37409
835.465	23.68061
835.641	20.76786
835.817	23.00685
835.993	43.01632
836.169	19.3652
836.344	33.14738
836.52	38.18823
836.696	34.20665
836.872	24.50236
837.048	84.1706
837.223	30.68604
837.399	64.53567
837.575	47.10312
837.75	44.07061
837.926	64.76595
838.102	97.81319
838.277	78.8736
838.453	106.69362
838.628	109.08783
838.804	36.7093
838.98	90.40886
839.155	47.29402
839.331	69.00205
839.506	47.4034
839.682	45.22142
839.857	65.62421
840.033	78.62158
840.208	34.90263
840.384	16.39047
840.559	36.51604
840.734	56.44524
840.91	74.26475
841.085	43.58823
841.26	41.0421
841.436	39.57451
841.611	38.22267
841.786	58.35453
841.962	79.32408
842.137	49.69299
842.312	27.2509
842.487	46.39551
842.663	34.78102
842.838	45.23462
843.013	150.47042
843.188	68.99906
843.363	72.20396
843.538	119.43575
843.714	124.56164
843.889	125.09884
844.064	128.02723
844.239	111.57574
844.414	127.31451
844.589	80.87024
844.764	165.74685
844.939	155.40005
845.114	166.17819
845.289	167.1449
845.464	224.19281
845.639	150.94145
845.814	72.80176
845.989	83.91728
846.163	104.60607
846.338	113.12186
846.513	154.93863
846.688	94.71608
846.863	108.02123
847.038	87.02038
847.212	106.44778
847.387	112.1352
847.562	115.23279
847.737	143.26752
847.911	49.3209
848.086	64.82516
848.261	232.13243
848.435	100.09784
848.61	154.49518
848.785	75.35135
848.959	154.25184
849.134	212.16404
849.308	218.90985
849.483	115.07008
849.658	185.33431
849.832	91.99445
850.007	80.50821
850.181	249.63317
850.356	93.26023
850.53	234.06145
850.705	72.87088
850.879	42.34462
851.053	104.27153
851.228	92.65594
851.402	126.7857
851.577	160.98272
851.751	184.37347
851.925	118.16879
852.099	54.9484
852.274	85.02001
852.448	111.77877
852.622	143.32059
852.797	112.8737
852.971	104.11405
853.145	116.12268
853.319	340.906
853.493	173.08094
853.668	93.01625
853.842	225.80989
854.016	182.52021
854.19	206.22676
854.364	126.60202
854.538	137.54841
854.712	176.52691
854.886	114.49652
855.06	95.68206
855.234	43.58908
855.408	189.42712
855.582	162.44131
855.756	165.61538
855.93	212.68779
856.104	142.22874
856.278	165.13296
856.452	118.90365
856.626	155.53233
856.8	262.34522
856.973	152.78379
857.147	141.98336
857.321	143.85674
857.495	180.07831
857.669	114.6801
857.842	107.43632
858.016	171.55303
858.19	81.54982
858.364	283.0691
858.537	103.75862
858.711	133.14029
858.885	103.50779
859.058	90.21987
859.232	54.97689
859.405	57.81617
859.579	163.36296
859.753	139.40043
859.926	90.61098
860.1	69.41508
860.273	119.42532
860.447	211.9868
860.62	107.09488
860.794	248.91421
860.967	133.25623
861.141	176.9343
861.314	256.29628
861.487	156.22351
861.661	199.5616
861.834	200.07566
862.008	176.07758
862.181	133.39663
862.354	131.98722
862.528	159.92473
862.701	100.45454
862.874	71.72357
863.047	111.71914
863.221	97.08004
863.394	51.56595
863.567	199.23554
863.74	38.46769
863.913	163.2245
864.087	140.19377
864.26	170.43855
864.433	122.50427
864.606	225.02201
864.779	129.32808
864.952	59.26164
865.125	103.35622
865.298	115.83248
865.471	124.32082
865.644	257.19914
865.817	205.85296
865.99	174.38714
866.163	197.25852
866.336	113.08891
866.509	126.9754
866.682	107.22329
866.855	190.99594
867.028	74.06652
867.2	155.3551
867.373	45.65492
867.546	131.07436
867.719	261.4963
867.892	156.11874
868.064	89.6096
868.237	145.41268
868.41	123.22386
868.583	66.86946
868.755	77.02529
868.928	121.61648
869.101	272.50874
869.273	191.48037
869.446	149.52778
869.619	184.84044
869.791	120.92245
869.964	186.19122
870.136	172.58848
870.309	131.39527
870.481	136.55738
870.654	67.82623
870.826	139.03308
870.999	105.18706
871.171	166.75018
871.344	103.51032
871.516	116.00293
871.689	87.39222
871.861	138.99034
872.033	93.48588
872.206	112.85619
872.378	180.07191
872.55	120.10641
872.723	68.90374
872.895	114.82664
873.067	183.21679
873.24	202.4003
873.412	106.23637
873.584	118.62432
873.756	104.49962
873.928	144.70703
874.101	144.42328
874.273	164.44568
874.445	54.93424
874.617	72.30436
874.789	133.2568
874.961	103.65855
875.133	160.87576
875.305	131.26327
875.477	79.94572
875.649	68.02681
875.821	86.76184
875.993	223.62328
876.165	84.07339
876.337	147.16956
876.509	116.32041
876.681	143.41264
876.853	138.45709
877.025	142.4993
877.197	90.1269
877.369	86.51196
877.541	173.7802
877.712	40.4042
877.884	80.04336
878.056	159.41591
878.228	82.66936
878.4	153.88546
878.571	85.36972
878.743	53.93724
878.915	139.14068
879.086	75.69473
879.258	102.27613
879.43	91.34233
879.601	80.99651
879.773	83.98758
879.945	17.5806
880.116	34.35035
880.288	20.1483
880.459	22.7397
880.631	16.77323
880.802	21.3049
880.974	18.80644
881.145	12.41472
881.317	17.81534
881.488	12.69275
881.66	13.96023
881.831	12.35837
882.002	18.4351
882.174	12.39906
882.345	17.11474
882.517	7.55616
882.688	20.50255
882.859	16.54017
883.03	29.30128
883.202	26.42354
883.373	20.82166
883.544	21.62932
883.715	43.58011
883.887	33.88821
884.058	27.43289
884.229	41.78207
884.4	43.42261
884.571	50.23356
884.742	40.59994
884.914	45.73032
885.085	70.9222
885.256	90.91387
885.427	72.36122
885.598	89.06174
885.769	91.83198
885.94	87.2617
886.111	52.47706
886.282	105.14943
886.453	84.73459
886.624	54.42737
886.795	101.34876
886.966	86.18093
887.136	113.29512
887.307	70.75139
887.478	150.98028
887.649	126.65375
887.82	137.60385
887.991	101.37279
888.161	144.31236
888.332	139.47842
888.503	70.51549
888.674	192.90987
888.844	210.86148
889.015	162.10428
889.186	71.48851
889.356	194.53359
889.527	69.48161
889.698	341.22528
889.868	112.05926
890.039	141.23215
890.209	120.44613
890.38	170.56515
890.551	138.15842
890.721	209.42903
890.892	168.58581
891.062	115.29785
891.233	144.52887
891.403	112.69368
891.574	91.56876
891.744	110.01963
891.914	159.43839
892.085	121.38151
892.255	40.28294
892.425	200.1032
892.596	160.20273
892.766	141.4235
892.936	198.91789
893.107	165.59736
893.277	84.69359
893.447	66.69379
893.618	48.90589
893.788	109.45067
893.958	55.38496
894.128	60.12815
894.298	66.20618
894.468	92.63491
894.639	41.25753
894.809	23.89013
894.979	45.47569
895.149	52.72388
895.319	42.95836
895.489	62.8565
895.659	79.63716
895.829	50.46585
895.999	53.05311
896.169	36.76919
896.339	49.76996
896.509	103.75641
896.679	118.81322
896.849	110.64053
897.019	164.72727
897.189	122.97139
897.358	105.89387
897.528	165.88069
897.698	51.2481
897.868	147.76358
898.038	265.38896
898.208	241.00134
898.377	70.01931
898.547	249.24119
898.717	405.35568
898.886	154.40075
899.056	247.09564
899.226	374.54045
899.395	215.70039
899.565	287.90438
899.735	181.96169
899.904	317.01287
900.074	273.61586
900.244	121.13243
900.413	488.05839
900.583	103.44911
900.752	181.75587
900.922	298.91288
901.091	35.00372
901.261	257.13511
901.43	241.64388
901.599	239.66945
901.769	537.27548
901.938	277.30462
902.108	257.41153
902.277	347.91993
902.446	95.62752
902.616	114.06409
902.785	165.36879
902.954	283.08504
903.124	178.03297
903.293	143.81399
903.462	78.85535
903.631	109.27649
903.801	80.48463
903.97	39.85008
904.139	72.2709
904.308	53.79309
904.477	42.74067
904.646	23.11047
904.816	40.11302
904.985	59.36083
905.154	91.4458
