Data from WindowProjectSample_Transmission__9__00009__05571840493442521.txt Node

Date: Mon May 05 16:50:37 EDT 2025
User: jessi
Spectrometer: SR400872
Trigger mode: 0
Integration Time (sec): 5.000010E-1
Scans to average: 20
Electric dark correction enabled: true
Nonlinearity correction enabled: true
Boxcar width: 0
XAxis mode: Wavelengths
Number of Pixels in Spectrum: 3648
>>>>>Begin Spectral Data<<<<<
184.909	20660.65559
185.132	-4922.20199
185.355	-2964.58184
185.578	-17134.14576
185.801	1851.50094
186.024	9938.80975
186.247	-1737.77702
186.47	1153.96765
186.693	369.18358
186.916	261.23734
187.139	-3581.97267
187.362	3291.27102
187.585	3890.40012
187.808	3538.24829
188.031	-69.79782
188.254	-51775.37159
188.476	-1611.71264
188.699	6243.15873
188.922	713.73341
189.145	-14978.86463
189.368	-814.73971
189.591	-1092.79865
189.813	3143.11043
190.036	-49213.85562
190.259	-873.76953
190.482	-4276.53525
190.705	6937.82125
190.927	-2476.91285
191.15	13017.78885
191.373	3326.98746
191.595	-9128.80312
191.818	-4110.70674
192.041	-7059.71433
192.263	-3341.31725
192.486	-862.84489
192.709	-3922.84201
192.931	8030.1605
193.154	-28016.74619
193.377	-2784.86691
193.599	-2686.60592
193.822	-9826.72811
194.044	-2115.02366
194.267	1156.16568
194.489	258.00742
194.712	-42573.31297
194.934	-30423.70535
195.157	1070.93331
195.379	1456.78462
195.602	-6682.19641
195.824	-1250.9936
196.047	-8997.48395
196.269	2679.58098
196.492	-6215.81412
196.714	28116.97732
196.936	-8570.1808
197.159	-1184.49759
197.381	1154.17541
197.604	553.93298
197.826	11947.50096
198.048	-10467.76478
198.271	-2725.90018
198.493	7509.29975
198.715	2352.71305
198.938	-502.70818
199.16	7479.69458
199.382	-98820.9449
199.604	2786.48462
199.827	-1009.11765
200.049	-2941.49956
200.271	15279.68273
200.493	1232.83609
200.715	-37011.33565
200.938	-6113.02677
201.16	-4145.96817
201.382	19986.07555
201.604	2233.98885
201.826	2343.18071
202.048	-2037.81485
202.27	-1897.6728
202.492	-37880.94738
202.715	2926.08446
202.937	-4395.86664
203.159	-6335.74384
203.381	1486.60836
203.603	7036.52883
203.825	6290.13566
204.047	2117.04157
204.269	-2967.68218
204.491	2129.64951
204.713	5853.70106
204.935	-481950.76614
205.156	1187.55294
205.378	-3010.81034
205.6	1622.61797
205.822	150261.35823
206.044	-1197.2617
206.266	1559.95504
206.488	4522.68524
206.71	-5110.35139
206.932	1142.30555
207.153	12161.9002
207.375	-6896.74918
207.597	-37478.3581
207.819	-2797.68155
208.041	2364.61796
208.262	516.36343
208.484	731.67208
208.706	-767.87897
208.927	-847.56181
209.149	561.49735
209.371	-2941.03394
209.593	-386.73698
209.814	-790.50217
210.036	527.71222
210.258	-625.09934
210.479	1998.47679
210.701	1550.06862
210.922	3323.12722
211.144	-4043.62665
211.366	2122.10855
211.587	8256.00576
211.809	-8329.69366
212.03	2348.64416
212.252	519.81619
212.473	2330.97088
212.695	-6810.62311
212.916	2781.93444
213.138	-707.5399
213.359	3619.04727
213.581	5428.78953
213.802	-790.70323
214.024	1138.81885
214.245	2098.68523
214.466	2866.69619
214.688	-3249.7645
214.909	-1270.93865
215.131	-1736.92625
215.352	-3286.1021
215.573	14759.98159
215.795	5018.90516
216.016	5356.25739
216.237	882.92432
216.459	3763.4285
216.68	1689.3864
216.901	4982.9582
217.122	-3194.146
217.344	-11825.83784
217.565	3524.9944
217.786	8886.99014
218.007	17128.95814
218.228	-819.28668
218.45	5531.29901
218.671	818.56806
218.892	38667.61793
219.113	1604.13544
219.334	-173.46367
219.555	8826.69495
219.776	3168.74197
219.997	21214.2193
220.219	2670.34288
220.44	-11491.54577
220.661	452.84684
220.882	1540.9011
221.103	-1207.40559
221.324	2309.18178
221.545	2322.21777
221.766	-8918.60372
221.987	1042.85551
222.208	1724.18898
222.429	4262.96027
222.65	358.80972
222.87	19761.54388
223.091	779.12346
223.312	568.82969
223.533	1382.71109
223.754	1464.49555
223.975	1397.22469
224.196	1860.79427
224.417	1354.66741
224.637	650.90922
224.858	176.59746
225.079	1232.58061
225.3	691.84966
225.521	3795.23159
225.741	477.3463
225.962	521.00542
226.183	200.46024
226.404	705.62404
226.624	445.32264
226.845	704.57496
227.066	424.60642
227.286	289.0107
227.507	165.84413
227.728	151.22783
227.948	266.44624
228.169	102.62089
228.389	116.78911
228.61	85.59967
228.831	96.99126
229.051	35.9538
229.272	76.15315
229.492	92.96062
229.713	48.5788
229.933	69.63628
230.154	67.2872
230.374	89.50375
230.595	72.95204
230.815	56.50214
231.036	80.35954
231.256	29.04782
231.477	103.19578
231.697	77.05905
231.917	78.11734
232.138	95.74424
232.358	138.92093
232.579	144.8183
232.799	53.08143
233.019	137.4813
233.24	149.91349
233.46	75.32291
233.68	103.42989
233.901	69.84292
234.121	63.63858
234.341	50.39385
234.561	30.54309
234.782	53.96863
235.002	96.53437
235.222	34.3727
235.442	101.10049
235.662	71.81074
235.883	92.86499
236.103	81.62802
236.323	65.60965
236.543	60.32311
236.763	75.10741
236.983	81.32125
237.203	68.91827
237.423	92.48747
237.643	118.4636
237.864	105.5
238.084	51.166
238.304	57.22869
238.524	74.88576
238.744	71.67708
238.964	111.04498
239.184	93.81046
239.404	97.99432
239.624	70.08862
239.843	87.31893
240.063	65.61962
240.283	50.77484
240.503	55.52308
240.723	54.8549
240.943	47.88495
241.163	50.57286
241.383	44.84283
241.603	38.52943
241.822	39.65285
242.042	39.00595
242.262	42.00073
242.482	42.49371
242.702	45.65459
242.921	37.74316
243.141	41.75251
243.361	40.90441
243.581	45.02857
243.8	42.23722
244.02	41.01566
244.24	42.81702
244.459	43.39817
244.679	51.28279
244.899	44.25972
245.118	42.60324
245.338	43.58467
245.558	41.8199
245.777	38.57932
245.997	41.11291
246.216	41.51173
246.436	37.94872
246.655	38.51462
246.875	38.53209
247.094	42.68134
247.314	38.70668
247.533	41.97345
247.753	41.59946
247.972	41.92898
248.192	39.04281
248.411	40.82338
248.631	41.54065
248.85	42.41108
249.07	42.56812
249.289	42.84503
249.508	41.1245
249.728	43.28706
249.947	41.14192
250.166	44.60573
250.386	38.17823
250.605	38.77579
250.824	44.13465
251.044	38.6277
251.263	58.81357
251.482	46.64837
251.701	42.9725
251.921	31.86327
252.14	35.78573
252.359	38.11134
252.578	42.51119
252.798	38.38735
253.017	42.22692
253.236	38.05599
253.455	40.50375
253.674	44.02639
253.893	38.91245
254.112	41.99569
254.331	41.38456
254.551	40.49318
254.77	34.99778
254.989	43.56214
255.208	38.28805
255.427	47.16229
255.646	42.658
255.865	51.235
256.084	40.00353
256.303	42.78112
256.522	42.99117
256.741	32.63711
256.96	33.17744
257.179	39.45673
257.397	40.03166
257.616	38.06957
257.835	36.41799
258.054	44.78414
258.273	42.24041
258.492	41.61142
258.711	38.06088
258.93	35.9072
259.148	38.57231
259.367	38.2581
259.586	40.30839
259.805	38.08958
260.023	41.07496
260.242	40.66322
260.461	40.53679
260.68	38.84454
260.898	42.53599
261.117	40.05175
261.336	38.82823
261.554	41.61406
261.773	41.0528
261.992	38.32557
262.21	38.79969
262.429	37.93596
262.648	41.08651
262.866	42.61794
263.085	40.62351
263.303	38.43276
263.522	43.26036
263.74	41.71663
263.959	48.77369
264.178	41.82103
264.396	39.37885
264.615	37.53279
264.833	42.10263
265.051	40.75093
265.27	43.72452
265.488	41.65729
265.707	37.607
265.925	42.28861
266.144	37.05934
266.362	37.9316
266.58	37.37394
266.799	38.33671
267.017	39.54795
267.235	39.60311
267.454	37.38096
267.672	36.49755
267.89	38.76308
268.109	39.28898
268.327	39.77646
268.545	35.79589
268.763	38.45856
268.982	36.06391
269.2	38.18241
269.418	37.46371
269.636	36.23024
269.854	38.59704
270.073	36.50885
270.291	36.15997
270.509	35.29845
270.727	38.53758
270.945	40.55469
271.163	41.18734
271.381	36.14672
271.599	38.5498
271.817	39.73811
272.036	37.54216
272.254	39.09866
272.472	38.46164
272.69	37.95401
272.908	38.88922
273.126	40.09157
273.344	41.38082
273.562	36.91489
273.779	38.97092
273.997	40.5543
274.215	39.50603
274.433	37.83647
274.651	40.18666
274.869	38.95366
275.087	37.55617
275.305	38.00271
275.523	37.60049
275.74	36.84806
275.958	40.18312
276.176	41.60304
276.394	36.73906
276.612	38.20399
276.829	38.19646
277.047	37.54456
277.265	37.50824
277.483	37.71989
277.7	38.60056
277.918	37.51562
278.136	40.14027
278.353	37.20073
278.571	35.90393
278.789	37.6923
279.006	34.85586
279.224	36.67585
279.442	38.86004
279.659	38.0487
279.877	36.89481
280.094	39.01784
280.312	35.84931
280.529	37.93809
280.747	35.83162
280.964	37.57567
281.182	40.47988
281.399	37.08848
281.617	38.42051
281.834	36.90299
282.052	37.14504
282.269	38.52181
282.487	37.769
282.704	37.53101
282.921	37.33756
283.139	38.54344
283.356	39.27739
283.574	39.76135
283.791	36.96725
284.008	40.27414
284.226	38.38855
284.443	38.08709
284.66	39.27407
284.877	38.74141
285.095	37.36918
285.312	36.41991
285.529	36.58237
285.746	36.47394
285.964	37.87721
286.181	37.42087
286.398	38.31751
286.615	38.59278
286.832	39.07931
287.05	36.69816
287.267	38.13937
287.484	37.98136
287.701	38.56247
287.918	38.08621
288.135	38.57784
288.352	36.3558
288.569	36.9453
288.786	37.30786
289.003	37.03562
289.22	38.32911
289.437	36.79673
289.654	37.81526
289.871	38.49681
290.088	38.47876
290.305	38.57577
290.522	37.7975
290.739	38.15212
290.956	39.05614
291.173	39.32018
291.39	39.68407
291.607	38.61042
291.824	38.00294
292.04	37.44268
292.257	38.66674
292.474	39.38912
292.691	37.3222
292.908	36.29869
293.125	36.63866
293.341	36.46206
293.558	39.27423
293.775	37.33712
293.992	37.48128
294.208	36.09927
294.425	37.36214
294.642	37.84367
294.858	38.62602
295.075	36.78335
295.292	37.9832
295.508	38.56487
295.725	40.09515
295.942	38.53865
296.158	38.35652
296.375	39.32972
296.591	38.64417
296.808	39.59241
297.024	40.24939
297.241	40.71449
297.458	41.09706
297.674	39.46764
297.891	40.91874
298.107	41.28598
298.323	40.74288
298.54	43.18873
298.756	41.45577
298.973	40.69746
299.189	43.35013
299.406	41.37015
299.622	42.78563
299.838	42.66557
300.055	42.37521
300.271	40.95939
300.487	41.04009
300.704	41.67291
300.92	40.93553
301.136	44.90003
301.353	42.85549
301.569	42.3645
301.785	42.82646
302.001	43.29753
302.218	42.87146
302.434	43.28632
302.65	41.98091
302.866	42.60655
303.083	45.04328
303.299	45.20154
303.515	43.20373
303.731	43.88002
303.947	42.12364
304.163	42.70057
304.379	43.43916
304.595	43.74409
304.812	43.06705
305.028	43.30901
305.244	43.53492
305.46	44.34371
305.676	44.79891
305.892	44.64451
306.108	44.46746
306.324	43.4943
306.54	45.12845
306.756	44.12015
306.972	43.82029
307.187	44.0745
307.403	44.32683
307.619	43.45824
307.835	44.56587
308.051	45.07636
308.267	42.7466
308.483	45.55447
308.699	44.26924
308.914	44.20188
309.13	43.87208
309.346	43.18343
309.562	43.65621
309.778	43.54369
309.993	44.74966
310.209	44.88111
310.425	43.64816
310.641	44.52637
310.856	44.10336
311.072	44.13833
311.288	44.95347
311.503	45.40259
311.719	43.84592
311.935	43.69875
312.15	45.62413
312.366	45.53657
312.581	45.94153
312.797	45.88216
313.013	46.40209
313.228	44.82691
313.444	44.78225
313.659	44.34955
313.875	45.10507
314.09	44.56869
314.306	45.61716
314.521	45.19746
314.737	45.42865
314.952	44.82805
315.168	44.96313
315.383	45.16055
315.599	44.29224
315.814	44.82894
316.029	45.7428
316.245	44.29157
316.46	42.99064
316.675	45.61363
316.891	46.21005
317.106	47.10903
317.321	44.73241
317.537	45.19264
317.752	45.6447
317.967	45.67249
318.183	44.09655
318.398	44.39043
318.613	45.28064
318.828	45.54831
319.043	45.38357
319.259	44.23322
319.474	44.94889
319.689	45.83268
319.904	43.22857
320.119	45.71597
320.334	44.96011
320.549	44.69002
320.765	45.70581
320.98	45.38432
321.195	44.51502
321.41	44.59365
321.625	45.33489
321.84	46.10438
322.055	45.57676
322.27	43.97957
322.485	43.37496
322.7	45.20123
322.915	44.97311
323.13	44.31156
323.345	46.15376
323.56	45.9972
323.775	45.63707
323.989	45.59718
324.204	45.28457
324.419	46.20358
324.634	44.3162
324.849	45.06451
325.064	48.48287
325.279	46.19124
325.493	45.7002
325.708	46.15071
325.923	44.48351
326.138	45.03559
326.352	46.54137
326.567	45.91872
326.782	44.6768
326.997	44.99024
327.211	45.80062
327.426	45.56245
327.641	45.26891
327.855	44.39943
328.07	45.73578
328.285	46.8274
328.499	44.50158
328.714	45.15187
328.928	44.94347
329.143	45.03511
329.358	45.94149
329.572	45.7891
329.787	46.06003
330.001	47.15512
330.216	43.79761
330.43	46.98922
330.645	46.01407
330.859	45.79652
331.074	43.90823
331.288	45.02942
331.503	46.40514
331.717	43.86274
331.931	45.03888
332.146	45.51617
332.36	46.8994
332.575	45.60873
332.789	45.46408
333.003	46.06279
333.218	46.32335
333.432	45.51998
333.646	47.37322
333.86	48.64192
334.075	48.28774
334.289	46.38996
334.503	45.56276
334.717	47.07944
334.932	46.22347
335.146	46.19069
335.36	44.49046
335.574	45.40855
335.788	44.67946
336.003	44.68809
336.217	44.29139
336.431	43.22263
336.645	41.62881
336.859	40.55832
337.073	41.34821
337.287	42.64251
337.501	42.0516
337.715	45.07012
337.929	45.97626
338.143	45.37302
338.357	46.41186
338.571	46.40005
338.785	47.53661
338.999	46.12927
339.213	46.24299
339.427	45.50196
339.641	47.15128
339.855	45.53869
340.069	44.77801
340.283	46.2589
340.497	46.82472
340.711	45.69018
340.924	45.45693
341.138	44.25794
341.352	44.25196
341.566	45.30732
341.78	44.06265
341.993	44.87409
342.207	44.81683
342.421	45.82747
342.635	45.33118
342.848	45.21499
343.062	43.52707
343.276	45.19053
343.49	46.67522
343.703	44.99542
343.917	46.00865
344.131	46.48009
344.344	44.68945
344.558	45.22133
344.771	44.46185
344.985	46.78255
345.199	46.99644
345.412	45.98252
345.626	45.87516
345.839	44.54108
346.053	44.75361
346.266	45.00829
346.48	46.16515
346.693	46.34768
346.907	45.90187
347.12	45.14324
347.334	45.95532
347.547	46.10735
347.76	45.76971
347.974	46.40393
348.187	45.75071
348.401	45.44596
348.614	44.43165
348.827	45.32975
349.041	45.28006
349.254	43.40287
349.467	44.30557
349.681	44.06045
349.894	44.01023
350.107	46.04589
350.32	46.82899
350.534	44.36076
350.747	45.13288
350.96	44.83358
351.173	44.96504
351.386	45.14171
351.6	44.90764
351.813	44.82693
352.026	44.82602
352.239	44.43755
352.452	44.75208
352.665	46.15335
352.878	45.19457
353.092	46.54929
353.305	45.64188
353.518	45.48437
353.731	44.34379
353.944	45.92991
354.157	44.92913
354.37	44.7908
354.583	44.34088
354.796	44.37349
355.009	46.07659
355.222	45.64701
355.435	45.54602
355.647	46.2448
355.86	45.02376
356.073	45.45159
356.286	44.99458
356.499	46.05688
356.712	46.04678
356.925	46.07869
357.138	46.27175
357.35	45.22399
357.563	45.54577
357.776	45.80284
357.989	45.84094
358.201	46.19985
358.414	46.43087
358.627	46.96036
358.84	45.9553
359.052	45.02479
359.265	45.10402
359.478	46.1772
359.69	43.74433
359.903	46.07295
360.116	46.44814
360.328	44.3987
360.541	46.14898
360.753	45.13262
360.966	45.64681
361.179	45.7983
361.391	45.70971
361.604	45.82304
361.816	46.01166
362.029	45.96332
362.241	45.81603
362.454	46.18869
362.666	45.84095
362.879	46.95553
363.091	46.31759
363.304	46.02195
363.516	45.89056
363.728	45.03824
363.941	46.00566
364.153	46.02055
364.366	44.37805
364.578	45.05614
364.79	45.86574
365.003	45.97834
365.215	45.34668
365.427	46.2249
365.639	46.15894
365.852	45.5428
366.064	46.94372
366.276	45.42227
366.488	45.70582
366.701	45.30801
366.913	45.41361
367.125	45.3073
367.337	44.94556
367.549	45.35764
367.762	45.4064
367.974	45.45677
368.186	45.33411
368.398	46.08967
368.61	45.84247
368.822	46.12992
369.034	44.75402
369.246	46.03095
369.458	47.51338
369.67	44.8399
369.882	46.40127
370.094	43.97818
370.306	46.32693
370.518	45.12764
370.73	44.89409
370.942	45.17724
371.154	45.47884
371.366	45.38115
371.578	45.99451
371.79	45.48256
372.002	46.67729
372.214	47.21707
372.425	45.8061
372.637	46.81227
372.849	46.11423
373.061	44.16934
373.273	45.73859
373.484	45.62108
373.696	46.04383
373.908	44.12135
374.12	46.25554
374.331	45.98542
374.543	44.76729
374.755	44.92249
374.967	45.4754
375.178	46.06184
375.39	45.21741
375.602	45.71169
375.813	44.55035
376.025	45.0397
376.236	45.70715
376.448	45.96503
376.66	45.43006
376.871	45.80956
377.083	46.47189
377.294	47.13001
377.506	45.6232
377.717	46.94166
377.929	46.26103
378.14	45.65688
378.352	46.44385
378.563	46.58695
378.775	47.03499
378.986	45.27141
379.197	45.7098
379.409	45.06402
379.62	45.91306
379.832	45.91201
380.043	45.58811
380.254	45.94118
380.466	45.05431
380.677	47.65222
380.888	46.8993
381.1	47.5524
381.311	47.56872
381.522	45.90754
381.733	47.56172
381.945	45.7418
382.156	45.61566
382.367	45.48812
382.578	47.59426
382.789	47.55967
383.001	45.26994
383.212	46.9682
383.423	46.75598
383.634	46.54579
383.845	46.42468
384.056	45.80662
384.267	45.93368
384.478	46.1918
384.69	45.46041
384.901	46.44978
385.112	46.34524
385.323	47.1377
385.534	46.05838
385.745	46.21423
385.956	46.07047
386.167	45.38146
386.378	46.34043
386.588	45.6182
386.799	45.50455
387.01	45.20221
387.221	46.59239
387.432	46.12416
387.643	47.25151
387.854	45.80976
388.065	45.97032
388.275	46.06559
388.486	45.83655
388.697	45.90282
388.908	45.79019
389.119	46.91521
389.329	46.8559
389.54	46.14629
389.751	45.90663
389.962	46.84161
390.172	45.74065
390.383	45.88132
390.594	45.39033
390.804	45.47512
391.015	45.82376
391.226	46.13813
391.436	46.65374
391.647	46.63328
391.858	46.99601
392.068	45.47649
392.279	45.87912
392.489	46.65776
392.7	47.08886
392.91	45.75829
393.121	45.89708
393.331	46.56512
393.542	46.74918
393.752	46.51286
393.963	46.53618
394.173	46.46806
394.384	46.61087
394.594	46.37033
394.804	45.8027
395.015	46.57365
395.225	46.76054
395.436	45.9154
395.646	46.60653
395.856	46.04558
396.067	45.34691
396.277	46.62096
396.487	46.49401
396.697	46.30766
396.908	46.61854
397.118	46.40376
397.328	46.22297
397.538	46.79957
397.749	45.67477
397.959	46.67495
398.169	46.22558
398.379	45.286
398.589	46.66441
398.8	46.48046
399.01	46.4468
399.22	46.19298
399.43	47.7429
399.64	46.19375
399.85	46.88153
400.06	46.47146
400.27	45.73598
400.48	46.2295
400.69	47.22153
400.9	46.01172
401.11	45.79815
401.32	46.56662
401.53	45.87726
401.74	47.12951
401.95	46.51038
402.16	45.9775
402.37	46.26577
402.58	45.93279
402.79	46.61252
403	46.86536
403.209	45.98345
403.419	46.87906
403.629	46.04831
403.839	46.92839
404.049	47.02549
404.258	46.40808
404.468	46.24131
404.678	47.19481
404.888	47.60475
405.097	46.39707
405.307	46.85227
405.517	47.0929
405.727	47.12393
405.936	46.55078
406.146	46.9424
406.356	47.33641
406.565	46.50538
406.775	46.5347
406.984	46.43504
407.194	47.79686
407.404	46.59997
407.613	46.8709
407.823	47.08538
408.032	47.43089
408.242	47.30794
408.451	46.2708
408.661	46.29554
408.87	47.66003
409.08	46.49886
409.289	46.75946
409.499	46.96404
409.708	46.69241
409.918	45.55366
410.127	47.23263
410.336	47.83689
410.546	47.57631
410.755	46.8021
410.964	46.9183
411.174	46.49121
411.383	47.33181
411.592	47.48212
411.802	46.57608
412.011	47.35969
412.22	46.64469
412.429	48.17813
412.639	47.69877
412.848	47.3659
413.057	47.82434
413.266	47.64667
413.475	47.07787
413.685	47.22655
413.894	47.55087
414.103	47.78342
414.312	47.63114
414.521	46.84545
414.73	47.25177
414.939	48.46655
415.148	47.74373
415.357	47.55988
415.566	47.19057
415.776	47.22691
415.985	47.30779
416.194	48.21671
416.403	48.67586
416.611	46.87603
416.82	47.51291
417.029	47.86678
417.238	47.41024
417.447	47.45315
417.656	47.70728
417.865	47.53032
418.074	47.74157
418.283	48.16954
418.492	48.61983
418.7	48.44445
418.909	50.59303
419.118	49.83189
419.327	50.62605
419.536	51.27939
419.744	52.49081
419.953	54.89637
420.162	56.63984
420.371	57.43881
420.579	60.45864
420.788	61.3501
420.997	61.39103
421.205	64.12095
421.414	63.43444
421.623	64.23285
421.831	63.66063
422.04	64.09769
422.249	62.01797
422.457	61.15283
422.666	58.7806
422.874	59.73126
423.083	59.54278
423.291	60.20566
423.5	60.79201
423.708	62.51196
423.917	63.39638
424.125	63.20325
424.334	63.66101
424.542	65.706
424.751	65.80924
424.959	64.83838
425.167	63.13498
425.376	63.25907
425.584	58.86552
425.793	57.42442
426.001	55.56346
426.209	52.98951
426.418	50.46412
426.626	48.67869
426.834	48.36351
427.042	48.90922
427.251	48.53044
427.459	49.18083
427.667	48.8428
427.875	48.22527
428.084	48.49408
428.292	49.25192
428.5	49.17361
428.708	48.35268
428.916	48.38471
429.124	49.06673
429.333	48.77849
429.541	48.75918
429.749	49.05852
429.957	49.08049
430.165	50.49206
430.373	48.43819
430.581	49.17583
430.789	49.82682
430.997	49.02085
431.205	48.62692
431.413	49.11653
431.621	49.15521
431.829	49.33135
432.037	48.7417
432.245	49.49408
432.453	49.76026
432.661	49.23628
432.869	50.61774
433.076	49.30984
433.284	49.66168
433.492	50.06721
433.7	50.3942
433.908	49.63849
434.116	49.89408
434.323	49.85311
434.531	49.59877
434.739	49.78934
434.947	50.21708
435.154	49.97209
435.362	49.54904
435.57	49.47143
435.778	49.12792
435.985	49.71037
436.193	49.27128
436.401	50.0099
436.608	49.36566
436.816	49.4254
437.023	50.50226
437.231	50.37221
437.439	49.75319
437.646	49.83855
437.854	50.04252
438.061	50.13272
438.269	49.82657
438.476	50.1963
438.684	49.91416
438.891	49.89508
439.099	49.73323
439.306	49.67075
439.514	49.76937
439.721	51.92845
439.929	52.65813
440.136	54.49041
440.343	55.31528
440.551	55.95193
440.758	58.18224
440.965	55.61998
441.173	55.80224
441.38	55.86094
441.587	53.09934
441.795	53.31487
442.002	51.04018
442.209	50.56741
442.416	50.37612
442.624	50.39251
442.831	50.05714
443.038	49.66463
443.245	49.36255
443.452	49.82518
443.66	50.56897
443.867	49.92226
444.074	49.95152
444.281	49.9371
444.488	50.22305
444.695	50.42747
444.902	50.35399
445.109	53.29734
445.316	54.68796
445.523	57.21278
445.73	59.30114
445.937	61.59387
446.144	62.996
446.351	64.94397
446.558	63.11816
446.765	67.88916
446.972	64.49264
447.179	64.62331
447.386	64.21872
447.593	60.36858
447.8	61.39637
448.007	56.93769
448.214	54.1866
448.42	52.56674
448.627	51.22652
448.834	50.65091
449.041	50.45198
449.248	50.37298
449.454	50.93994
449.661	51.34651
449.868	50.39766
450.075	50.16557
450.281	49.3799
450.488	49.79995
450.695	50.13818
450.901	50.08385
451.108	50.2842
451.315	50.99183
451.521	50.39605
451.728	51.32616
451.935	50.26449
452.141	50.78414
452.348	50.89731
452.554	51.035
452.761	50.74803
452.967	51.86664
453.174	51.19225
453.38	51.33819
453.587	50.40648
453.793	51.04598
454	51.42245
454.206	51.9604
454.413	51.31253
454.619	51.08918
454.825	50.46679
455.032	51.0941
455.238	51.52811
455.445	50.47317
455.651	51.18219
455.857	50.38673
456.064	50.73146
456.27	50.89907
456.476	50.78699
456.682	50.48791
456.889	51.42532
457.095	51.16845
457.301	52.1559
457.507	50.80759
457.714	51.06616
457.92	50.927
458.126	50.94994
458.332	50.67503
458.538	50.94247
458.744	51.2214
458.951	51.45815
459.157	56.0916
459.363	57.81028
459.569	59.82339
459.775	60.90962
459.981	62.52162
460.187	64.27411
460.393	62.96976
460.599	62.26368
460.805	59.96896
461.011	56.46571
461.217	53.24584
461.423	51.49312
461.629	50.80012
461.835	51.2475
462.041	50.58482
462.247	51.66775
462.453	50.7867
462.658	50.87671
462.864	51.39803
463.07	51.22795
463.276	51.31653
463.482	51.26477
463.688	52.08615
463.893	51.24221
464.099	51.34942
464.305	52.4825
464.511	51.15304
464.716	51.51108
464.922	52.06173
465.128	51.20069
465.333	52.65696
465.539	52.01936
465.745	51.66794
465.95	52.14424
466.156	53.10764
466.362	52.03333
466.567	51.62875
466.773	51.16667
466.978	52.40312
467.184	51.16333
467.389	50.62288
467.595	51.92629
467.8	51.34901
468.006	52.48826
468.211	52.39175
468.417	51.34535
468.622	52.03195
468.828	52.19475
469.033	52.18575
469.239	53.41445
469.444	51.82393
469.649	52.38797
469.855	51.84875
470.06	51.84129
470.266	51.61131
470.471	52.43155
470.676	52.25934
470.881	51.12506
471.087	52.78058
471.292	53.50923
471.497	51.36514
471.703	52.23174
471.908	51.78362
472.113	52.28048
472.318	52.45981
472.523	51.82039
472.729	52.32422
472.934	52.42248
473.139	51.84091
473.344	52.47306
473.549	52.60918
473.754	51.88791
473.959	53.48798
474.164	51.84337
474.369	52.09793
474.575	52.49531
474.78	52.16005
474.985	51.79697
475.19	51.29856
475.395	51.79809
475.6	52.41583
475.804	53.03647
476.009	52.23798
476.214	52.22984
476.419	52.3547
476.624	51.85402
476.829	52.17421
477.034	52.98036
477.239	52.25201
477.444	52.94354
477.648	52.73478
477.853	52.73837
478.058	52.32642
478.263	52.14988
478.468	51.86503
478.672	52.1033
478.877	53.42711
479.082	53.23469
479.287	52.549
479.491	52.50274
479.696	51.91533
479.901	52.5076
480.105	52.80367
480.31	52.20007
480.515	52.42495
480.719	53.61044
480.924	52.43145
481.128	52.1833
481.333	52.77044
481.538	52.83714
481.742	55.72014
481.947	59.2852
482.151	63.89562
482.356	69.58206
482.56	79.27707
482.765	89.26248
482.969	96.23295
483.174	98.34566
483.378	98.65351
483.582	98.65408
483.787	98.65383
483.991	98.65339
484.196	98.65416
484.4	98.65415
484.604	98.65394
484.809	98.65456
485.013	98.65363
485.217	98.65411
485.422	97.60177
485.626	95.28036
485.83	92.81007
486.034	90.58985
486.239	91.28026
486.443	92.89185
486.647	94.37145
486.851	95.46805
487.055	97.11511
487.26	97.661
487.464	98.30714
487.668	98.42352
487.872	98.65414
488.076	98.58681
488.28	98.32468
488.484	97.57484
488.688	96.81898
488.892	95.14314
489.096	91.82008
489.3	86.41529
489.504	79.85841
489.708	74.5736
489.912	71.76536
490.116	69.90061
490.32	70.75123
490.524	75.33886
490.728	79.87396
490.932	86.01955
491.136	91.56716
491.34	93.91369
491.544	94.67261
491.748	95.20318
491.951	95.23684
492.155	94.98281
492.359	93.85111
492.563	90.09004
492.767	84.47974
492.97	75.90801
493.174	67.43978
493.378	61.06857
493.582	55.11328
493.785	51.79116
493.989	51.70045
494.193	52.01543
494.396	52.03828
494.6	52.95572
494.804	52.44713
495.007	52.52406
495.211	52.72152
495.414	52.90524
495.618	53.25024
495.822	54.02023
496.025	53.55272
496.229	54.00387
496.432	53.38091
496.636	53.87325
496.839	53.63959
497.043	54.7523
497.246	54.10347
497.45	53.92945
497.653	54.26343
497.856	53.97414
498.06	53.28643
498.263	53.51444
498.467	53.29234
498.67	53.88415
498.873	53.71285
499.077	53.41676
499.28	53.42963
499.483	53.6613
499.686	53.74621
499.89	53.53526
500.093	53.85264
500.296	53.11257
500.499	54.2678
500.703	53.489
500.906	53.5238
501.109	54.30793
501.312	53.52964
501.515	53.4884
501.719	53.72503
501.922	54.25063
502.125	53.75398
502.328	53.51021
502.531	53.21388
502.734	53.97318
502.937	53.08678
503.14	54.14225
503.343	53.48871
503.546	53.79152
503.749	53.65239
503.952	54.53859
504.155	53.7509
504.358	54.43148
504.561	54.14161
504.764	53.50981
504.967	54.14312
505.17	53.94657
505.373	54.72604
505.576	54.05274
505.778	54.41706
505.981	53.56818
506.184	54.50009
506.387	53.18408
506.59	54.98917
506.793	54.52479
506.995	54.20068
507.198	53.32236
507.401	54.48277
507.604	54.53523
507.806	53.81284
508.009	54.06984
508.212	54.74517
508.414	54.22081
508.617	54.09284
508.82	54.56183
509.022	55.09569
509.225	54.68187
509.427	53.74141
509.63	54.84872
509.833	54.36805
510.035	53.89659
510.238	53.65967
510.44	54.71204
510.643	53.25031
510.845	55.12896
511.048	54.3012
511.25	54.00529
511.453	54.19268
511.655	54.59849
511.858	54.01306
512.06	54.79476
512.262	54.42264
512.465	54.88836
512.667	54.12753
512.869	53.71793
513.072	54.72032
513.274	54.59088
513.476	54.36137
513.679	54.57344
513.881	53.73864
514.083	54.90092
514.286	53.78328
514.488	54.03334
514.69	53.63846
514.892	53.63609
515.094	54.43961
515.297	53.93835
515.499	54.33257
515.701	53.90523
515.903	55.24037
516.105	55.39842
516.307	54.62416
516.509	53.63529
516.711	53.95886
516.913	54.79364
517.116	54.48506
517.318	54.5437
517.52	55.55322
517.722	55.50395
517.924	54.75425
518.126	55.53299
518.328	55.7069
518.529	57.22202
518.731	58.10414
518.933	56.41242
519.135	56.57877
519.337	56.64767
519.539	55.04306
519.741	54.11766
519.943	54.25524
520.145	54.1736
520.346	54.41661
520.548	54.08777
520.75	54.23251
520.952	54.15331
521.153	54.48805
521.355	54.65338
521.557	53.74674
521.759	54.58365
521.96	54.52984
522.162	54.33365
522.364	55.20368
522.565	54.37249
522.767	54.86955
522.969	55.29499
523.17	54.94577
523.372	55.19734
523.573	54.57676
523.775	54.80804
523.977	54.5643
524.178	56.14936
524.38	54.69096
524.581	55.57149
524.783	55.33158
524.984	55.92114
525.186	56.05818
525.387	58.11889
525.589	59.37177
525.79	60.92868
525.991	61.88821
526.193	63.02887
526.394	63.27123
526.596	64.51031
526.797	65.92096
526.998	66.02725
527.2	70.42822
527.401	77.07406
527.602	84.38859
527.803	93.74986
528.005	96.3847
528.206	97.73983
528.407	98.44371
528.608	98.62781
528.81	98.65382
529.011	98.65418
529.212	98.65343
529.413	98.55056
529.614	97.78168
529.815	96.06314
530.017	92.58228
530.218	83.5165
530.419	75.39858
530.62	70.52813
530.821	66.43992
531.022	62.84001
531.223	62.5941
531.424	61.08594
531.625	62.02044
531.826	61.59697
532.027	64.56408
532.228	68.87534
532.429	72.79547
532.63	77.0072
532.831	81.09214
533.032	83.62552
533.233	85.88287
533.433	85.61916
533.634	85.94921
533.835	84.15859
534.036	81.57291
534.237	77.42975
534.438	72.35603
534.638	66.31988
534.839	61.5211
535.04	58.04171
535.241	55.79239
535.441	56.19027
535.642	56.60262
535.843	57.56646
536.043	58.89916
536.244	60.28532
536.445	61.27809
536.645	62.74087
536.846	62.47209
537.047	62.60668
537.247	60.77342
537.448	58.88345
537.648	56.49142
537.849	54.94923
538.049	54.5786
538.25	54.60891
538.451	54.59023
538.651	53.92464
538.851	54.93769
539.052	55.30601
539.252	55.1552
539.453	55.09566
539.653	55.51493
539.854	55.53213
540.054	56.31598
540.254	63.08013
540.455	70.08342
540.655	75.54107
540.855	83.13176
541.056	87.73826
541.256	90.03515
541.456	92.27752
541.657	93.15492
541.857	93.02593
542.057	91.68253
542.257	88.91071
542.458	85.7469
542.658	80.16528
542.858	74.23115
543.058	69.20244
543.258	66.38819
543.458	62.29927
543.659	59.73834
543.859	58.80171
544.059	56.80835
544.259	55.08639
544.459	55.47722
544.659	55.03271
544.859	55.14099
545.059	54.8919
545.259	55.49476
545.459	55.40519
545.659	55.91849
545.859	55.72685
546.059	56.17507
546.259	55.80032
546.459	55.62048
546.659	55.51014
546.859	56.48852
547.059	56.09626
547.258	56.14504
547.458	55.85407
547.658	55.25406
547.858	54.90972
548.058	55.43489
548.258	54.9158
548.457	54.34791
548.657	56.10357
548.857	54.84801
549.057	55.52688
549.256	55.11701
549.456	54.93205
549.656	54.25799
549.855	56.53174
550.055	55.10098
550.255	56.62645
550.454	55.58512
550.654	56.44052
550.853	56.50858
551.053	56.09774
551.253	55.92621
551.452	55.99666
551.652	55.35741
551.851	55.35615
552.051	56.16725
552.25	56.07674
552.45	55.96175
552.649	55.90828
552.849	55.91867
553.048	56.31414
553.248	56.61919
553.447	55.71803
553.646	56.34897
553.846	57.2062
554.045	56.38826
554.244	54.87977
554.444	56.30858
554.643	54.83516
554.842	56.23875
555.042	56.68769
555.241	55.2575
555.44	55.0754
555.64	56.20093
555.839	56.63874
556.038	56.34722
556.237	55.53437
556.436	56.32429
556.636	56.14559
556.835	55.22038
557.034	56.99016
557.233	55.95386
557.432	54.94519
557.631	56.59178
557.83	55.79736
558.029	55.68756
558.228	55.76137
558.427	55.19919
558.626	56.3131
558.825	55.29761
559.024	55.98126
559.223	57.1193
559.422	55.64276
559.621	56.4462
559.82	54.71461
560.019	56.05686
560.218	55.94474
560.417	54.87915
560.616	56.00513
560.815	58.39992
561.014	55.58152
561.212	57.0066
561.411	56.72678
561.61	55.67185
561.809	56.15524
562.008	57.49024
562.206	55.9096
562.405	56.79597
562.604	56.34388
562.803	56.08017
563.001	55.96256
563.2	55.28613
563.399	56.54264
563.597	55.75302
563.796	56.03833
563.995	55.61425
564.193	57.06669
564.392	56.18104
564.59	57.69029
564.789	55.50605
564.988	56.54078
565.186	56.68063
565.385	56.88104
565.583	56.61371
565.782	57.17633
565.98	56.79514
566.179	56.5655
566.377	56.38983
566.575	56.30405
566.774	57.55384
566.972	57.02883
567.171	57.67064
567.369	57.3319
567.567	56.26773
567.766	56.07523
567.964	54.67762
568.162	56.34355
568.361	56.8887
568.559	56.02849
568.757	56.22406
568.956	56.50398
569.154	56.72091
569.352	56.8716
569.55	56.28392
569.748	56.70947
569.947	56.10984
570.145	56.08358
570.343	56.1674
570.541	57.86864
570.739	56.05944
570.937	56.89077
571.135	57.15511
571.333	58.75676
571.532	58.41043
571.73	57.4523
571.928	57.97497
572.126	57.55006
572.324	56.91214
572.522	57.90968
572.72	58.8716
572.918	56.88977
573.116	57.0766
573.313	56.55255
573.511	56.52332
573.709	55.98271
573.907	57.22265
574.105	56.58494
574.303	55.73116
574.501	56.00132
574.699	57.20413
574.896	57.39302
575.094	57.26116
575.292	56.16351
575.49	57.82483
575.688	56.98794
575.885	57.92073
576.083	58.73091
576.281	57.33132
576.478	56.40689
576.676	57.05292
576.874	55.77079
577.071	56.42374
577.269	58.15432
577.467	56.39782
577.664	56.56783
577.862	57.46671
578.059	56.04889
578.257	57.27964
578.455	56.59943
578.652	56.83026
578.85	55.55342
579.047	56.62335
579.245	56.35819
579.442	56.91833
579.64	56.70087
579.837	55.44371
580.034	58.90356
580.232	56.92369
580.429	56.14865
580.627	57.81828
580.824	57.82371
581.021	57.66532
581.219	56.72241
581.416	56.95285
581.613	58.22939
581.811	58.09984
582.008	56.43089
582.205	57.54687
582.402	57.26386
582.6	58.97593
582.797	57.33865
582.994	57.57899
583.191	57.57669
583.388	56.93433
583.586	57.64628
583.783	57.9988
583.98	56.48494
584.177	57.23319
584.374	55.29588
584.571	57.13662
584.768	56.6942
584.965	56.65433
585.162	57.95527
585.359	58.22717
585.556	57.33415
585.753	57.248
585.95	56.27633
586.147	56.66316
586.344	57.76956
586.541	56.83161
586.738	56.64165
586.935	57.20259
587.132	56.82167
587.329	58.32419
587.526	57.20531
587.722	61.43082
587.919	56.16806
588.116	58.13216
588.313	58.44653
588.51	59.50206
588.706	57.45701
588.903	58.05541
589.1	58.1645
589.297	59.86166
589.493	57.60424
589.69	57.97024
589.887	56.87876
590.083	56.92183
590.28	57.08057
590.477	58.05572
590.673	57.9693
590.87	58.35338
591.067	56.82605
591.263	57.30338
591.46	57.43022
591.656	56.81637
591.853	58.28694
592.049	56.77638
592.246	56.77026
592.442	58.2685
592.639	58.61182
592.835	56.51401
593.032	58.06219
593.228	56.65311
593.425	56.65343
593.621	56.53449
593.817	58.13729
594.014	57.17775
594.21	58.25218
594.406	58.75601
594.603	58.15347
594.799	57.0954
594.995	56.26404
595.192	58.47105
595.388	57.44166
595.584	57.72897
595.78	57.00327
595.977	60.4077
596.173	59.45358
596.369	58.07562
596.565	57.81468
596.761	57.48357
596.957	59.40771
597.154	57.71521
597.35	57.85253
597.546	57.43478
597.742	58.76659
597.938	58.22211
598.134	57.14619
598.33	57.24681
598.526	58.39613
598.722	57.27556
598.918	58.41488
599.114	57.4475
599.31	56.2342
599.506	57.08188
599.702	56.71291
599.898	57.40482
600.094	58.37365
600.29	58.45711
600.485	58.55124
600.681	56.88166
600.877	59.55895
601.073	58.02912
601.269	59.76721
601.465	59.39877
601.66	57.39664
601.856	56.45818
602.052	59.8945
602.248	58.13382
602.443	56.99239
602.639	57.37204
602.835	57.72124
603.03	57.35401
603.226	58.96784
603.422	57.75176
603.617	58.38892
603.813	58.5325
604.009	58.19689
604.204	59.22068
604.4	57.15234
604.595	59.07465
604.791	57.50877
604.986	58.20386
605.182	57.47278
605.377	57.46675
605.573	57.50238
605.768	57.66605
605.964	57.90929
606.159	57.62648
606.355	57.75146
606.55	56.78378
606.746	58.05653
606.941	57.04127
607.136	59.21413
607.332	60.10852
607.527	56.65057
607.722	58.07094
607.918	57.9124
608.113	57.29834
608.308	59.28551
608.503	58.72207
608.699	59.27775
608.894	59.18913
609.089	58.22819
609.284	59.11818
609.479	58.28695
609.675	59.11953
609.87	58.16616
610.065	59.08462
610.26	59.09735
610.455	58.89459
610.65	58.12399
610.845	58.16882
611.04	58.6494
611.235	57.60333
611.43	57.43602
611.625	56.71158
611.82	59.09671
612.015	57.33007
612.21	59.49666
612.405	56.72659
612.6	59.7545
612.795	59.41887
612.99	59.052
613.185	57.19725
613.38	57.47346
613.575	58.12133
613.77	61.37907
613.965	56.93061
614.159	57.81697
614.354	59.96358
614.549	59.67164
614.744	59.48248
614.938	57.62702
615.133	57.10141
615.328	59.92587
615.523	59.57267
615.717	61.68807
615.912	58.06298
616.107	58.47438
616.301	58.49432
616.496	58.07864
616.691	60.12492
616.885	59.4438
617.08	61.50086
617.274	59.62712
617.469	60.27674
617.664	59.53942
617.858	57.91197
618.053	59.1572
618.247	58.34098
618.442	56.17869
618.636	60.03724
618.831	57.50609
619.025	57.91546
619.219	61.51691
619.414	55.48758
619.608	57.72323
619.803	57.89797
619.997	60.82021
620.191	59.3411
620.386	58.85211
620.58	58.19171
620.774	56.685
620.969	56.78152
621.163	58.79381
621.357	57.76199
621.551	58.24821
621.746	58.57657
621.94	58.25237
622.134	62.32772
622.328	61.13617
622.522	57.05481
622.716	59.6165
622.911	60.07494
623.105	59.19885
623.299	59.31923
623.493	62.0845
623.687	57.63749
623.881	57.95277
624.075	59.51243
624.269	60.49718
624.463	56.68965
624.657	57.26502
624.851	59.55771
625.045	59.91741
625.239	60.05202
625.433	58.96398
625.627	61.10959
625.821	58.88433
626.015	58.51589
626.209	60.02613
626.403	57.70767
626.596	59.94174
626.79	60.48879
626.984	57.94133
627.178	59.88149
627.372	59.82337
627.565	59.8171
627.759	57.91117
627.953	57.70532
628.147	58.98846
628.34	59.30936
628.534	60.96112
628.728	58.51763
628.921	59.36237
629.115	59.29813
629.309	59.77548
629.502	59.6229
629.696	58.89631
629.89	58.84659
630.083	59.44379
630.277	59.35024
630.47	60.75672
630.664	58.44767
630.857	57.2617
631.051	60.20225
631.244	60.23988
631.438	60.11784
631.631	58.10408
631.825	60.93196
632.018	59.6144
632.212	61.15473
632.405	60.7437
632.598	58.15092
632.792	59.36617
632.985	56.82586
633.178	59.09612
633.372	59.75866
633.565	59.32555
633.758	61.00261
633.952	58.49877
634.145	58.64435
634.338	59.47757
634.531	58.56176
634.724	58.49107
634.918	59.60893
635.111	58.92224
635.304	58.71747
635.497	62.00447
635.69	59.18339
635.883	60.53143
636.077	57.92179
636.27	59.80227
636.463	59.01421
636.656	59.64935
636.849	58.86735
637.042	59.94598
637.235	62.05111
637.428	60.36197
637.621	59.7142
637.814	61.33332
638.007	61.09746
638.2	60.93176
638.393	61.85724
638.586	57.53477
638.778	59.32121
638.971	59.20747
639.164	61.26549
639.357	59.91915
639.55	62.11199
639.743	61.00103
639.935	60.42732
640.128	62.46992
640.321	61.30322
640.514	60.04218
640.707	62.53074
640.899	60.57649
641.092	57.50053
641.285	75.40342
641.477	56.50755
641.67	63.21017
641.863	61.23701
642.055	59.92689
642.248	59.48286
642.441	58.43563
642.633	60.87218
642.826	61.86571
643.018	61.7639
643.211	63.03994
643.403	62.4626
643.596	63.0989
643.788	62.77689
643.981	59.64796
644.173	61.26653
644.366	59.54872
644.558	57.47164
644.751	61.40663
644.943	58.24759
645.135	62.1788
645.328	62.52068
645.52	61.19579
645.712	61.73795
645.905	64.54219
646.097	58.4104
646.289	59.89983
646.482	63.49996
646.674	58.98123
646.866	62.04433
647.058	60.99188
647.251	58.55013
647.443	59.15926
647.635	59.6197
647.827	58.21625
648.019	58.48967
648.211	59.64754
648.404	59.92527
648.596	63.11955
648.788	60.92405
648.98	60.46106
649.172	61.19198
649.364	60.63922
649.556	57.93507
649.748	65.12404
649.94	58.98438
650.132	61.83308
650.324	59.37305
650.516	59.94288
650.708	62.15806
650.9	59.11965
651.092	60.36524
651.284	59.3838
651.476	59.35357
651.667	61.91708
651.859	63.417
652.051	60.55865
652.243	61.27821
652.435	59.97319
652.627	61.75631
652.818	61.47062
653.01	58.81681
653.202	59.15436
653.394	59.61393
653.585	61.43768
653.777	68.16183
653.969	62.98508
654.16	62.34913
654.352	58.9949
654.544	60.12665
654.735	62.59184
654.927	60.91511
655.118	62.98156
655.31	61.92237
655.502	62.78319
655.693	60.49914
655.885	61.05636
656.076	63.51051
656.268	61.15312
656.459	63.63647
656.651	63.16715
656.842	59.99718
657.034	59.842
657.225	63.10088
657.416	63.94154
657.608	63.66275
657.799	62.03586
657.99	64.3571
658.182	61.13059
658.373	60.9042
658.564	64.06993
658.756	63.09439
658.947	61.73759
659.138	60.89188
659.33	60.77895
659.521	61.01656
659.712	61.5635
659.903	61.40782
660.094	60.51869
660.286	58.58507
660.477	63.8476
660.668	61.98848
660.859	60.05835
661.05	58.43859
661.241	61.12085
661.432	60.79758
661.623	60.33521
661.814	59.98928
662.006	58.46989
662.197	61.20915
662.388	63.16244
662.579	61.19631
662.77	63.47056
662.96	65.63302
663.151	62.30637
663.342	57.76713
663.533	62.17775
663.724	61.19926
663.915	64.76009
664.106	61.3556
664.297	64.27747
664.488	62.54529
664.678	59.79046
664.869	62.95657
665.06	62.86574
665.251	62.23876
665.442	62.12435
665.632	59.74932
665.823	64.79778
666.014	56.20843
666.204	62.65056
666.395	64.28141
666.586	65.58542
666.776	63.51791
666.967	65.538
667.158	61.476
667.348	64.17082
667.539	59.99172
667.729	63.45007
667.92	60.84071
668.111	63.93937
668.301	63.42478
668.492	62.20779
668.682	62.61561
668.873	62.04074
669.063	60.03352
669.253	63.39288
669.444	64.86407
669.634	62.58662
669.825	65.94837
670.015	64.79917
670.206	60.5406
670.396	65.41502
670.586	61.83845
670.777	63.01418
670.967	58.72264
671.157	61.18326
671.347	60.5617
671.538	64.79345
671.728	63.48353
671.918	66.30532
672.108	63.66137
672.299	61.73546
672.489	62.56832
672.679	60.24292
672.869	62.98476
673.059	67.61093
673.249	63.49067
673.44	60.12367
673.63	62.37296
673.82	63.88489
674.01	61.15727
674.2	62.37496
674.39	68.3169
674.58	64.18844
674.77	62.98492
674.96	62.09137
675.15	70.77506
675.34	65.05399
675.53	62.74986
675.72	61.86739
675.91	60.1676
676.099	66.95625
676.289	67.90703
676.479	65.79112
676.669	61.69218
676.859	63.96247
677.049	61.45711
677.238	63.18528
677.428	66.74252
677.618	64.62465
677.808	67.50555
677.997	64.30456
678.187	61.48248
678.377	63.34754
678.567	62.30037
678.756	62.4549
678.946	63.73091
679.136	61.50517
679.325	63.32359
679.515	62.34242
679.704	61.68182
679.894	65.92236
680.084	64.6187
680.273	66.02455
680.463	62.45538
680.652	61.56035
680.842	63.99095
681.031	65.73266
681.221	62.20577
681.41	64.75531
681.6	62.86975
681.789	64.42038
681.978	65.63442
682.168	63.13892
682.357	63.29635
682.547	63.8176
682.736	63.29523
682.925	65.30183
683.115	65.27609
683.304	64.27429
683.493	63.63147
683.682	63.64398
683.872	63.75339
684.061	65.66319
684.25	64.75553
684.439	68.31731
684.629	65.8586
684.818	71.51765
685.007	63.75906
685.196	63.1432
685.385	68.43662
685.574	64.29885
685.763	65.28761
685.952	64.72654
686.142	62.22318
686.331	67.36659
686.52	61.42306
686.709	69.18673
686.898	69.00975
687.087	66.17401
687.276	68.39234
687.465	67.25886
687.654	63.60703
687.842	68.05179
688.031	61.85888
688.22	68.05869
688.409	64.4902
688.598	64.7882
688.787	70.39923
688.976	64.92213
689.165	69.60008
689.353	63.69943
689.542	64.99977
689.731	67.38646
689.92	71.04355
690.108	66.47444
690.297	63.74855
690.486	65.58204
690.675	67.49891
690.863	69.2001
691.052	68.64122
691.241	66.11488
691.429	65.7341
691.618	69.11596
691.806	62.51653
691.995	64.71882
692.184	66.02533
692.372	64.56805
692.561	66.05337
692.749	66.19483
692.938	74.599
693.126	67.78934
693.315	66.23363
693.503	67.98778
693.692	68.97354
693.88	68.01465
694.068	71.39397
694.257	66.64473
694.445	68.30769
694.634	61.49508
694.822	68.12477
695.01	70.47732
695.199	72.46357
695.387	70.5317
695.575	68.99973
695.763	66.62808
695.952	65.61415
696.14	62.90367
696.328	64.38088
696.516	66.4702
696.705	67.88117
696.893	67.07885
697.081	62.1737
697.269	69.83455
697.457	64.29459
697.645	63.90509
697.833	69.62416
698.021	65.18276
698.21	66.28437
698.398	66.76374
698.586	64.3054
698.774	64.00916
698.962	66.56716
699.15	64.15441
699.338	63.07319
699.526	67.67843
699.714	64.30139
699.901	64.14758
700.089	67.5065
700.277	63.33733
700.465	65.42471
700.653	67.48277
700.841	66.36363
701.029	63.67303
701.217	69.62511
701.404	66.10792
701.592	71.05479
701.78	73.36337
701.968	66.57257
702.155	66.40281
702.343	62.65393
702.531	70.37104
702.718	67.72134
702.906	65.24419
703.094	65.73312
703.281	70.87616
703.469	67.47737
703.657	70.52068
703.844	78.09955
704.032	74.3306
704.219	67.72094
704.407	70.15053
704.595	72.03093
704.782	69.38741
704.97	68.90591
705.157	68.48668
705.345	75.2277
705.532	81.62911
705.719	73.19558
705.907	75.88894
706.094	73.04145
706.282	79.14764
706.469	72.85138
706.656	74.63791
706.844	72.66578
707.031	78.0871
707.218	76.6339
707.406	79.94237
707.593	77.31953
707.78	76.91413
707.968	75.08417
708.155	73.94211
708.342	77.02733
708.529	77.94166
708.716	77.22072
708.904	80.93967
709.091	78.049
709.278	72.18651
709.465	83.46696
709.652	80.35029
709.839	78.1856
710.026	74.65934
710.213	68.88083
710.4	74.72507
710.587	75.79811
710.774	77.49175
710.961	77.54327
711.148	74.03736
711.335	76.78513
711.522	74.04365
711.709	75.83091
711.896	80.84466
712.083	78.35149
712.27	72.04351
712.457	75.20144
712.644	69.69991
712.831	81.60655
713.017	74.97053
713.204	77.2449
713.391	71.81496
713.578	77.49616
713.765	79.07451
713.951	75.53402
714.138	83.63216
714.325	74.4947
714.512	72.67453
714.698	69.51836
714.885	78.10294
715.072	72.82328
715.258	71.96414
715.445	69.66674
715.631	75.86661
715.818	63.02453
716.005	69.28969
716.191	73.37909
716.378	69.36472
716.564	74.57929
716.751	68.10425
716.937	69.53745
717.124	74.08846
717.31	67.35596
717.497	79.03903
717.683	68.86253
717.869	77.98244
718.056	68.158
718.242	71.98271
718.429	70.41745
718.615	66.35541
718.801	70.07352
718.988	74.98299
719.174	72.17906
719.36	70.0237
719.547	74.87826
719.733	71.2135
719.919	72.20679
720.105	72.83424
720.291	71.343
720.478	71.59987
720.664	70.51095
720.85	69.68644
721.036	82.50033
721.222	79.14333
721.408	71.63956
721.595	78.33247
721.781	77.56218
721.967	75.84182
722.153	78.54603
722.339	75.07521
722.525	71.60905
722.711	67.82321
722.897	67.44205
723.083	69.46169
723.269	74.87647
723.455	84.05754
723.641	89.68988
723.827	71.6903
724.012	73.19118
724.198	70.55957
724.384	78.27884
724.57	73.60868
724.756	66.72045
724.942	63.73074
725.127	75.88606
725.313	77.97758
725.499	76.74564
725.685	80.05707
725.87	72.80227
726.056	68.86514
726.242	78.89664
726.428	65.78694
726.613	75.84138
726.799	71.06514
726.985	68.54569
727.17	65.43016
727.356	80.30189
727.541	69.16751
727.727	72.81603
727.913	75.61408
728.098	70.83913
728.284	75.42629
728.469	67.77035
728.655	70.11223
728.84	77.20565
729.026	77.21589
729.211	75.8594
729.397	75.77694
729.582	76.69782
729.767	72.32821
729.953	74.47313
730.138	79.79865
730.323	64.9732
730.509	68.39359
730.694	81.31109
730.879	76.36463
731.065	74.1031
731.25	84.02417
731.435	75.88508
731.621	67.15205
731.806	71.2027
731.991	73.52225
732.176	66.34057
732.361	81.70014
732.547	74.42613
732.732	67.39778
732.917	83.02598
733.102	68.25259
733.287	70.04817
733.472	73.37722
733.657	72.47462
733.842	66.74505
734.027	70.27367
734.212	72.29841
734.397	70.01592
734.582	73.52867
734.767	78.01591
734.952	80.70223
735.137	61.83012
735.322	79.25673
735.507	75.55426
735.692	73.21389
735.877	81.77979
736.062	81.25102
736.247	76.80593
736.431	71.87952
736.616	78.12096
736.801	74.43935
736.986	73.29685
737.171	68.92058
737.355	68.66624
737.54	79.41619
737.725	74.58084
737.909	85.94665
738.094	71.83711
738.279	78.93215
738.463	71.30636
738.648	76.20642
738.833	76.68568
739.017	84.30734
739.202	71.75567
739.386	71.64199
739.571	68.24607
739.756	77.15309
739.94	72.6467
740.125	75.43502
740.309	68.016
740.494	78.16175
740.678	74.33455
740.863	75.90376
741.047	73.49178
741.231	83.37765
741.416	70.67518
741.6	83.03291
741.785	69.62633
741.969	78.60665
742.153	80.7042
742.338	65.76645
742.522	74.26209
742.706	78.8499
742.89	67.37778
743.075	74.86026
743.259	81.71923
743.443	79.73658
743.627	81.72076
743.812	86.51403
743.996	66.11748
744.18	72.74849
744.364	71.76187
744.548	87.74768
744.732	72.21383
744.916	80.51441
745.1	77.88375
745.285	73.1303
745.469	78.43066
745.653	83.98449
745.837	68.7596
746.021	88.2081
746.205	81.63602
746.389	75.00209
746.573	75.26259
746.757	84.37469
746.94	74.42608
747.124	82.15225
747.308	69.13995
747.492	82.00816
747.676	70.23081
747.86	91.46929
748.044	72.50632
748.227	66.7467
748.411	97.2317
748.595	75.44802
748.779	69.86404
748.963	77.57035
749.146	76.37767
749.33	70.85091
749.514	69.42561
749.697	80.62761
749.881	70.20785
750.065	69.56359
750.248	76.62527
750.432	90.1354
750.616	75.71774
750.799	69.86738
750.983	90.04568
751.166	89.95799
751.35	69.46568
751.533	83.01764
751.717	84.68317
751.9	84.71923
752.084	74.35845
752.267	72.23094
752.451	72.82715
752.634	76.81599
752.818	81.18554
753.001	80.73228
753.184	83.44677
753.368	78.92076
753.551	58.80352
753.734	72.3298
753.918	90.61066
754.101	72.26804
754.284	80.37006
754.467	72.61532
754.651	73.03866
754.834	70.19665
755.017	81.61548
755.2	84.49395
755.384	72.39331
755.567	81.86058
755.75	80.79807
755.933	73.65838
756.116	79.59156
756.299	73.2096
756.482	71.03993
756.665	79.22248
756.848	73.07897
757.032	78.51311
757.215	67.91184
757.398	70.62724
757.581	71.00045
757.764	94.07972
757.947	73.99831
758.129	82.64024
758.312	60.4302
758.495	74.90186
758.678	74.28979
758.861	73.03853
759.044	86.00945
759.227	70.5409
759.41	72.26077
759.592	80.97435
759.775	73.26083
759.958	79.84146
760.141	68.24386
760.324	93.53443
760.506	86.28492
760.689	80.71032
760.872	88.06721
761.054	78.69683
761.237	76.44354
761.42	77.21682
761.602	81.94713
761.785	78.60287
761.968	84.87605
762.15	87.66041
762.333	75.74515
762.515	79.01863
762.698	75.08237
762.88	82.27113
763.063	77.82825
763.245	83.5728
763.428	71.91179
763.61	74.02775
763.793	68.43016
763.975	78.7097
764.158	74.90476
764.34	73.30828
764.522	71.45573
764.705	76.36013
764.887	86.2806
765.069	67.62397
765.252	80.25868
765.434	79.76395
765.616	77.65812
765.799	72.25754
765.981	80.85776
766.163	74.66075
766.345	84.85276
766.528	71.99154
766.71	65.63614
766.892	79.2095
767.074	85.25167
767.256	76.2577
767.438	87.96987
767.62	78.5027
767.802	92.27381
767.985	81.24611
768.167	90.35638
768.349	75.09746
768.531	81.89804
768.713	81.38477
768.895	81.45262
769.077	80.89547
769.259	95.75778
769.441	113.85414
769.623	82.77873
769.804	89.63735
769.986	84.35336
770.168	93.52618
770.35	102.68595
770.532	89.60956
770.714	95.19269
770.896	92.76773
771.077	69.87584
771.259	99.18521
771.441	88.43487
771.623	101.55172
771.804	108.98917
771.986	74.04172
772.168	80.07084
772.35	97.29323
772.531	111.13535
772.713	88.02901
772.894	103.19504
773.076	89.1573
773.258	84.13413
773.439	103.43543
773.621	111.8686
773.802	80.60217
773.984	83.20198
774.166	92.51083
774.347	107.18322
774.529	103.69423
774.71	71.55851
774.891	89.39866
775.073	85.40558
775.254	103.5406
775.436	81.18313
775.617	114.8012
775.799	85.86903
775.98	101.54765
776.161	109.82581
776.343	111.60713
776.524	89.94617
776.705	89.08107
776.886	72.28406
777.068	91.21437
777.249	139.36622
777.43	111.91698
777.611	78.24824
777.793	85.86638
777.974	109.53093
778.155	83.72443
778.336	78.38993
778.517	120.63042
778.698	81.87981
778.879	73.57757
779.061	64.67527
779.242	94.97313
779.423	95.99997
779.604	84.45151
779.785	87.76147
779.966	92.66826
780.147	103.70583
780.328	102.5337
780.509	121.87662
780.69	103.45885
780.871	82.96706
781.051	75.1803
781.232	92.45288
781.413	91.29976
781.594	87.61418
781.775	86.51282
781.956	81.97947
782.137	70.46052
782.317	84.86089
782.498	90.48236
782.679	91.40163
782.86	93.83003
783.04	84.36908
783.221	94.72769
783.402	110.11787
783.583	90.88181
783.763	101.23609
783.944	85.55444
784.124	76.66544
784.305	112.48518
784.486	97.23043
784.666	88.98447
784.847	75.25679
785.027	131.02241
785.208	84.39226
785.388	85.6452
785.569	85.9955
785.749	89.55082
785.93	87.73126
786.11	74.37712
786.291	99.18834
786.471	91.1577
786.652	101.2986
786.832	87.21096
787.012	92.31905
787.193	78.52922
787.373	91.84326
787.553	85.52423
787.734	94.29781
787.914	85.68925
788.094	101.78887
788.275	94.50891
788.455	86.11015
788.635	77.9873
788.815	92.42979
788.995	80.03857
789.176	73.53878
789.356	81.15423
789.536	85.93377
789.716	95.12768
789.896	81.73483
790.076	83.39362
790.256	94.15722
790.436	67.71904
790.616	79.41484
790.796	93.23688
790.976	86.60793
791.156	81.22226
791.336	95.59412
791.516	93.14065
791.696	88.14971
791.876	74.77976
792.056	92.90679
792.236	101.20958
792.416	99.55437
792.596	93.82731
792.776	95.04402
792.956	97.6624
793.135	111.34462
793.315	80.00889
793.495	102.67385
793.675	99.31197
793.854	98.35715
794.034	101.81817
794.214	80.35978
794.394	98.00471
794.573	105.74617
794.753	92.24945
794.933	81.34099
795.112	96.9186
795.292	104.20181
795.472	112.82824
795.651	77.26583
795.831	88.43855
796.01	89.10451
796.19	88.51464
796.369	90.8009
796.549	96.22525
796.728	89.75884
796.908	77.38389
797.087	76.12695
797.267	84.77903
797.446	78.61812
797.626	95.59232
797.805	96.74362
797.984	83.03695
798.164	102.01595
798.343	83.47819
798.522	91.63837
798.702	92.44641
798.881	75.14699
799.06	89.89781
799.239	71.3685
799.419	80.51413
799.598	112.69249
799.777	93.17138
799.956	106.05091
800.136	86.16842
800.315	81.50093
800.494	96.63206
800.673	106.11397
800.852	99.51513
801.031	103.90786
801.21	98.12819
801.389	89.11246
801.568	91.78769
801.747	116.33944
801.926	93.3003
802.105	108.77566
802.284	84.40556
802.463	114.22353
802.642	96.50263
802.821	93.69474
803	110.7613
803.179	102.27161
803.358	105.63797
803.537	84.33773
803.716	89.43484
803.895	83.8138
804.073	90.51146
804.252	82.22998
804.431	96.94223
804.61	87.67121
804.789	100.83937
804.967	84.77018
805.146	85.87763
805.325	118.12052
805.503	95.20284
805.682	77.56169
805.861	134.95493
806.039	111.02114
806.218	88.26902
806.397	94.89185
806.575	92.24429
806.754	97.42231
806.932	79.51063
807.111	104.55577
807.289	105.04279
807.468	91.288
807.646	105.12037
807.825	102.52135
808.003	94.10783
808.182	104.63891
808.36	94.29306
808.539	80.63184
808.717	111.24733
808.895	83.85165
809.074	99.13323
809.252	91.56273
809.43	101.51449
809.609	106.65517
809.787	109.21943
809.965	90.41608
810.144	92.88795
810.322	97.13995
810.5	99.51195
810.678	88.54468
810.856	121.07035
811.035	106.2367
811.213	99.52481
811.391	116.65044
811.569	98.32155
811.747	144.62023
811.925	111.9134
812.103	85.43604
812.281	96.08723
812.459	117.61288
812.637	121.91125
812.816	105.1271
812.994	124.29539
813.171	114.93914
813.349	98.66911
813.527	108.48057
813.705	111.89141
813.883	135.13858
814.061	106.69855
814.239	118.1406
814.417	127.02895
814.595	101.98925
814.773	101.00619
814.95	96.06409
815.128	101.58418
815.306	100.0569
815.484	93.28997
815.662	85.20748
815.839	80.98764
816.017	86.98743
816.195	117.0861
816.372	87.86823
816.55	103.40642
816.728	118.02604
816.905	90.92073
817.083	118.46601
817.261	91.74019
817.438	138.16415
817.616	118.66854
817.793	87.29449
817.971	108.28031
818.148	107.53837
818.326	115.38653
818.503	96.13694
818.681	120.12914
818.858	91.03868
819.036	93.84547
819.213	95.47622
819.391	87.44778
819.568	87.58517
819.745	82.51849
819.923	106.0966
820.1	91.89467
820.277	85.52455
820.455	90.82765
820.632	92.0229
820.809	94.3917
820.986	81.7707
821.164	75.70656
821.341	75.71953
821.518	84.62531
821.695	77.03623
821.872	74.74442
822.05	71.24805
822.227	68.11171
822.404	69.16778
822.581	71.64994
822.758	69.67397
822.935	69.2968
823.112	71.6643
823.289	68.80711
823.466	71.19675
823.643	70.78914
823.82	74.67677
823.997	72.16809
824.174	75.53309
824.351	81.89815
824.528	80.82747
824.705	79.54281
824.882	81.52555
825.059	88.67087
825.236	80.4337
825.412	81.30164
825.589	85.66363
825.766	98.20998
825.943	82.75219
826.12	85.60901
826.296	78.15743
826.473	83.79446
826.65	82.43933
826.827	87.32768
827.003	76.9927
827.18	79.63779
827.357	82.0606
827.533	78.73781
827.71	69.64375
827.887	75.54578
828.063	80.05691
828.24	75.11678
828.416	81.12961
828.593	77.91139
828.769	87.25523
828.946	87.71386
829.122	89.06374
829.299	87.44704
829.475	75.7561
829.652	89.31849
829.828	107.65357
830.005	90.21379
830.181	102.78199
830.357	91.47049
830.534	102.78699
830.71	92.53498
830.886	103.98319
831.063	105.38474
831.239	113.30839
831.415	82.26339
831.592	113.2229
831.768	92.90538
831.944	88.57227
832.12	120.40155
832.296	114.49553
832.473	104.67874
832.649	85.84187
832.825	104.36553
833.001	84.25098
833.177	98.64488
833.353	91.14284
833.529	76.72805
833.705	91.62823
833.881	77.66338
834.058	78.84924
834.234	80.7939
834.41	81.04622
834.586	75.26842
834.761	79.96212
834.937	82.23155
835.113	82.1581
835.289	78.81035
835.465	82.92851
835.641	78.74765
835.817	82.56512
835.993	103.62192
836.169	82.55308
836.344	96.5749
836.52	97.39807
836.696	95.72193
836.872	89.75984
837.048	141.63072
837.223	93.81989
837.399	119.16289
837.575	106.9655
837.75	108.3544
837.926	126.89978
838.102	152.68876
838.277	139.3562
838.453	169.50366
838.628	171.97795
838.804	101.7061
838.98	150.34605
839.155	108.82171
839.331	127.17193
839.506	106.32345
839.682	106.70567
839.857	126.7778
840.033	138.55779
840.208	96.40646
840.384	76.71382
840.559	95.75291
840.734	114.71815
840.91	130.88879
841.085	98.01174
841.26	100.89286
841.436	96.96453
841.611	101.56056
841.786	123.57932
841.962	136.23863
842.137	110.30791
842.312	95.00304
842.487	106.24028
842.663	94.42679
842.838	108.34085
843.013	210.70396
843.188	129.81466
843.363	116.04296
843.538	180.37057
843.714	185.2603
843.889	185.1842
844.064	201.49214
844.239	171.75405
844.414	186.01704
844.589	145.20227
844.764	220.10868
844.939	215.64947
845.114	228.22047
845.289	222.40011
845.464	286.62769
845.639	205.85555
845.814	136.64667
845.989	143.02558
846.163	170.1815
846.338	169.30451
846.513	227.12517
846.688	164.52785
846.863	165.58194
847.038	159.41525
847.212	173.15837
847.387	178.02252
847.562	180.91747
847.737	205.04614
847.911	123.32686
848.086	129.56802
848.261	335.70818
848.435	165.01621
848.61	210.11152
848.785	137.6951
848.959	221.18233
849.134	272.75238
849.308	285.80046
849.483	178.49432
849.658	242.50171
849.832	164.53462
850.007	156.61712
850.181	304.35761
850.356	161.82392
850.53	292.80222
850.705	136.62854
850.879	103.38365
851.053	174.93553
851.228	160.79372
851.402	187.48219
851.577	230.03103
851.751	249.80006
851.925	185.87283
852.099	118.61758
852.274	149.28887
852.448	172.13877
852.622	198.26401
852.797	182.70417
852.971	165.67231
853.145	180.08096
853.319	410.4605
853.493	237.21889
853.668	150.24481
853.842	280.46979
854.016	242.37298
854.19	255.06784
854.364	189.77607
854.538	189.69154
854.712	243.6976
854.886	169.81276
855.06	169.2443
855.234	103.27089
855.408	254.23941
855.582	222.61032
855.756	220.63257
855.93	278.71823
856.104	210.84308
856.278	226.86605
856.452	185.99699
856.626	216.51902
856.8	312.30783
856.973	223.58398
857.147	193.24937
857.321	201.92217
857.495	238.80576
857.669	176.33058
857.842	160.04192
858.016	236.72352
858.19	163.44164
858.364	344.03976
858.537	167.6222
858.711	187.3004
858.885	171.35389
859.058	160.82836
859.232	117.97953
859.405	132.94366
859.579	227.92186
859.753	201.34956
859.926	161.23068
860.1	122.71797
860.273	179.22087
860.447	262.1447
860.62	165.62009
860.794	308.99756
860.967	199.3204
861.141	235.29319
861.314	321.21415
861.487	219.57292
861.661	267.93368
861.834	257.70912
862.008	235.44701
862.181	181.49134
862.354	188.46409
862.528	215.38634
862.701	166.75475
862.874	138.93932
863.047	173.41311
863.221	176.95244
863.394	109.36189
863.567	267.35786
863.74	105.10116
863.913	227.66333
864.087	196.87463
864.26	234.24792
864.433	179.60654
864.606	271.68032
864.779	190.74677
864.952	116.45011
865.125	160.13787
865.298	176.99353
865.471	187.69605
865.644	314.68569
865.817	274.44914
865.99	227.78987
866.163	250.45236
866.336	170.21052
866.509	189.70414
866.682	178.69167
866.855	246.77681
867.028	145.49548
867.2	214.54966
867.373	119.61827
867.546	207.27417
867.719	317.44807
867.892	214.70213
868.064	151.31859
868.237	221.12535
868.41	187.9295
868.583	137.58897
868.755	143.92204
868.928	199.26002
869.101	320.38009
869.273	245.19734
869.446	226.41169
869.619	247.56531
869.791	183.02521
869.964	240.73293
870.136	228.4128
870.309	195.56839
870.481	201.73794
870.654	124.95721
870.826	200.20044
870.999	171.35345
871.171	231.31152
871.344	170.60184
871.516	180.11554
871.689	156.80664
871.861	194.13605
872.033	152.96838
872.206	180.30639
872.378	242.16808
872.55	174.5801
872.723	141.56833
872.895	177.7051
873.067	255.54199
873.24	269.01715
873.412	170.30322
873.584	177.82161
873.756	169.53804
873.928	204.51389
874.101	214.87524
874.273	228.06096
874.445	115.15299
874.617	135.81126
874.789	207.76877
874.961	174.46045
875.133	225.80874
875.305	199.62563
875.477	146.85307
875.649	136.56414
875.821	162.56961
875.993	285.80912
876.165	143.95387
876.337	214.79268
876.509	175.84374
876.681	201.18817
876.853	201.82032
877.025	201.82327
877.197	158.1604
877.369	154.80182
877.541	234.70942
877.712	119.91535
877.884	149.55853
878.056	228.13339
878.228	145.20641
878.4	213.246
878.571	151.1548
878.743	121.96949
878.915	198.40749
879.086	145.6596
879.258	162.15896
879.43	152.39628
879.601	142.02071
879.773	147.16397
879.945	82.08852
880.116	94.93422
880.288	79.42835
880.459	82.15189
880.631	77.43102
880.802	80.91518
880.974	80.55688
881.145	74.55503
881.317	79.54145
881.488	75.4307
881.66	78.12316
881.831	77.03246
882.002	83.3794
882.174	78.38596
882.345	83.54621
882.517	74.93585
882.688	87.6106
882.859	85.61104
883.03	99.01013
883.202	96.45475
883.373	94.48756
883.544	93.81037
883.715	115.0723
883.887	106.97801
884.058	100.48548
884.229	119.26004
884.4	119.82443
884.571	127.94403
884.742	117.73085
884.914	126.12718
885.085	148.27045
885.256	165.8542
885.427	146.93989
885.598	162.4659
885.769	171.16599
885.94	163.6493
886.111	134.93444
886.282	185.01793
886.453	162.53986
886.624	134.14802
886.795	176.92538
886.966	165.07604
887.136	191.21397
887.307	155.06312
887.478	215.91814
887.649	199.37543
887.82	203.4411
887.991	183.86597
888.161	218.06216
888.332	221.43637
888.503	138.73375
888.674	268.32858
888.844	270.88338
889.015	236.79155
889.186	150.49029
889.356	265.01006
889.527	147.1442
889.698	410.68123
889.868	185.86133
890.039	208.86213
890.209	188.35307
890.38	237.21448
890.551	205.59043
890.721	282.5998
890.892	233.48569
891.062	183.27988
891.233	207.07818
891.403	179.88015
891.574	161.25333
891.744	183.43167
891.914	241.72465
892.085	202.39569
892.255	123.74433
892.425	277.38247
892.596	237.25099
892.766	210.12041
892.936	265.71915
893.107	239.01292
893.277	166.57185
893.447	137.4841
893.618	117.33188
893.788	167.48519
893.958	123.76179
894.128	126.40431
894.298	129.03558
894.468	157.02998
894.639	100.25317
894.809	97.34676
894.979	110.95891
895.149	120.32435
895.319	108.21625
895.489	131.96494
895.659	142.01109
895.829	120.79115
895.999	120.73661
896.169	109.48028
896.339	120.1704
896.509	173.48685
896.679	197.18164
896.849	190.21699
897.019	236.66649
897.189	206.70215
897.358	187.44015
897.528	251.25398
897.698	124.75417
897.868	231.94567
898.038	335.91112
898.208	318.09038
898.377	160.11196
898.547	326.91957
898.717	486.8764
898.886	226.47974
899.056	324.69869
899.226	443.7907
899.395	301.17677
899.565	351.0005
899.735	258.28591
899.904	391.47472
900.074	327.37637
900.244	196.80754
900.413	562.13381
900.583	189.18413
900.752	254.42353
900.922	349.86119
901.091	100.63624
901.261	320.52324
901.43	315.80421
901.599	328.50999
901.769	602.15329
901.938	350.39674
902.108	353.25565
902.277	432.40554
902.446	167.05768
902.616	170.69529
902.785	247.25107
902.954	337.60961
903.124	245.19526
903.293	221.38932
903.462	148.3248
903.631	168.14351
903.801	138.71491
903.97	102.13865
904.139	140.97963
904.308	118.24496
904.477	110.34136
904.646	95.21563
904.816	107.7277
904.985	126.87832
905.154	164.76221
