Data from WindowProjectSample_Transmission__6__00006.txt Node

Date: Sat May 03 14:57:40 EDT 2025
User: jessi
Spectrometer: SR400872
Trigger mode: 0
Integration Time (sec): 5.000010E-1
Scans to average: 6
Electric dark correction enabled: true
Nonlinearity correction enabled: true
Boxcar width: 0
XAxis mode: Wavelengths
Number of Pixels in Spectrum: 3648
>>>>>Begin Spectral Data<<<<<
184.909	17544.72924
185.132	2614.63333
185.355	23504.43644
185.578	-7850.66863
185.801	382.41013
186.024	-1457.47136
186.247	670.85398
186.47	1934.68279
186.693	18.82107
186.916	-2436.074
187.139	-2613.58931
187.362	1775.30766
187.585	2619.52902
187.808	-3551.089
188.031	-978.48117
188.254	-1342.43487
188.476	-653.80101
188.699	2659.7993
188.922	-920.61128
189.145	-9914.7921
189.368	-345.4496
189.591	-1143.68073
189.813	-1780.91613
190.036	1158.53222
190.259	1884.3674
190.482	610.79354
190.705	10303.13845
190.927	-1047.91806
191.15	3507.14181
191.373	2339.78358
191.595	-2195.12114
191.818	2483.32008
192.041	-364.471
192.263	2719.95542
192.486	2174.54522
192.709	-5407.79151
192.931	2750.45269
193.154	-6268.62729
193.377	188638.5362
193.599	1381.23552
193.822	1589.2368
194.044	-2253.16601
194.267	439.53362
194.489	-279.71773
194.712	1361.08951
194.934	3281.85978
195.157	-15829.93635
195.379	852.13565
195.602	2167.65662
195.824	2044.44357
196.047	2217.49519
196.269	3046.61406
196.492	3671.7723
196.714	2728.505
196.936	1157.1863
197.159	1382.75238
197.381	-2293.2224
197.604	-1310.22247
197.826	6822.17155
198.048	2889.70591
198.271	4446.59212
198.493	2135.90978
198.715	-5850.08785
198.938	-491.90888
199.16	1615.47847
199.382	1482.03562
199.604	-761.77936
199.827	9190.02646
200.049	941.82219
200.271	-2890.34055
200.493	-51500.39045
200.715	2340.79294
200.938	6580.81497
201.16	-7534.86338
201.382	-3002.49422
201.604	-2063.44584
201.826	6735.29376
202.048	834.37698
202.27	-16306.78188
202.492	4704.50587
202.715	-1079.82685
202.937	4731.25277
203.159	-2282.86828
203.381	910.8099
203.603	-3997.2156
203.825	-2493.71297
204.047	3321.5693
204.269	-2253.02892
204.491	2336.44367
204.713	1885.02398
204.935	16035.72044
205.156	1779.51185
205.378	-8323.98084
205.6	-4022.58955
205.822	9278.21166
206.044	-719.02054
206.266	3928.22797
206.488	1049.75105
206.71	28313.04155
206.932	2134.22423
207.153	-4753.93378
207.375	-1931.69925
207.597	8481.26752
207.819	3998.96824
208.041	2247.84942
208.262	-2527.15314
208.484	-1199.44003
208.706	-3123.32051
208.927	27525.71442
209.149	965.49949
209.371	-6531.03795
209.593	1442.35904
209.814	4775.44726
210.036	-2657.22549
210.258	-5481.51935
210.479	-1325.136
210.701	1015.20359
210.922	6307.97867
211.144	-1172.15487
211.366	-6248.35743
211.587	-436.34564
211.809	9585.48409
212.03	-1170.4032
212.252	-1645.10156
212.473	797.76308
212.695	-2441.95979
212.916	2906.39084
213.138	4202.8448
213.359	-1921.80482
213.581	6395.08197
213.802	-1788.80336
214.024	16498.81276
214.245	-3598.76743
214.466	-711.42744
214.688	1692.6503
214.909	874.84198
215.131	-97555.89123
215.352	1590.30609
215.573	2505.29714
215.795	3054.59812
216.016	4005.01506
216.237	-562.18495
216.459	6337.13448
216.68	103994.32552
216.901	-86963.43747
217.122	1636.57203
217.344	6063.92968
217.565	-59024.91706
217.786	1551.78761
218.007	1817.24757
218.228	-1108.77618
218.45	-1159.63726
218.671	-1206.88371
218.892	1149.32964
219.113	-17758.91194
219.334	-314.80956
219.555	-5244.23008
219.776	1607.99683
219.997	3327.4802
220.219	1041.41644
220.44	2436.85611
220.661	-2485.0123
220.882	3334.7232
221.103	-1218.49468
221.324	994.64098
221.545	2269.64544
221.766	-5958.5671
221.987	3946.61661
222.208	-1775.30366
222.429	3449.2529
222.65	-234.01898
222.87	-519.84553
223.091	7826.20599
223.312	2612.05333
223.533	6333.55083
223.754	1846.8837
223.975	1475.73026
224.196	-10548.36575
224.417	1032.70705
224.637	1000.94411
224.858	-614.72717
225.079	7088.15132
225.3	572.90044
225.521	1988.35023
225.741	1393.58013
225.962	696.24424
226.183	279.19814
226.404	675.28874
226.624	601.06911
226.845	369.34634
227.066	414.94358
227.286	200.94385
227.507	100.38957
227.728	80.52926
227.948	123.52384
228.169	35.73544
228.389	43.96531
228.61	24.8452
228.831	35.37451
229.051	4.40746
229.272	22.07576
229.492	31.83595
229.713	9.51474
229.933	23.51437
230.154	18.35831
230.374	31.7145
230.595	23.28216
230.815	15.64772
231.036	21.10323
231.256	-3.96319
231.477	42.86227
231.697	24.05328
231.917	25.35326
232.138	35.80913
232.358	77.42555
232.579	63.08695
232.799	11.49896
233.019	63.83293
233.24	77.74887
233.46	24.04344
233.68	43.22137
233.901	31.4058
234.121	15.53998
234.341	8.17729
234.561	-3.0799
234.782	12.88708
235.002	45.57163
235.222	-1.58093
235.442	40.38759
235.662	20.1173
235.883	44.41568
236.103	36.12422
236.323	25.61064
236.543	21.45126
236.763	30.76431
236.983	28.41072
237.203	28.72052
237.423	42.59822
237.643	63.2794
237.864	52.57767
238.084	14.31176
238.304	24.64679
238.524	33.61086
238.744	27.7149
238.964	47.14918
239.184	42.79541
239.404	43.87347
239.624	24.45748
239.843	39.37654
240.063	23.50822
240.283	14.71399
240.503	17.34821
240.723	16.04873
240.943	9.79205
241.163	12.73607
241.383	10.40917
241.603	4.90031
241.822	6.97259
242.042	4.78086
242.262	5.68941
242.482	6.40569
242.702	7.99206
242.921	2.54392
243.141	5.45876
243.361	4.94221
243.581	6.74507
243.8	6.34841
244.02	3.62954
244.24	7.403
244.459	6.83844
244.679	14.44651
244.899	8.93681
245.118	10.36768
245.338	8.55445
245.558	10.21042
245.777	6.23402
245.997	7.84239
246.216	7.55183
246.436	3.92255
246.655	3.28514
246.875	2.39618
247.094	4.74996
247.314	1.80097
247.533	2.56506
247.753	3.56386
247.972	2.65931
248.192	0.97264
248.411	1.73623
248.631	3.08172
248.85	4.20451
249.07	2.86221
249.289	5.17225
249.508	3.72089
249.728	6.42155
249.947	6.55404
250.166	7.05022
250.386	4.34625
250.605	6.06524
250.824	7.44876
251.044	6.15299
251.263	20.59666
251.482	10.35987
251.701	9.38703
251.921	0.19469
252.14	3.62453
252.359	3.70026
252.578	8.45375
252.798	2.59887
253.017	7.31579
253.236	4.14142
253.455	5.00118
253.674	9.66855
253.893	4.63278
254.112	6.73515
254.331	8.83564
254.551	7.17645
254.77	4.54078
254.989	11.54763
255.208	9.81346
255.427	12.01676
255.646	10.39989
255.865	17.89714
256.084	7.01787
256.303	8.91235
256.522	10.95047
256.741	2.26606
256.96	2.17193
257.179	8.00095
257.397	8.855
257.616	4.41325
257.835	4.73882
258.054	11.86374
258.273	7.139
258.492	8.79823
258.711	5.22991
258.93	2.26925
259.148	3.37895
259.367	3.48769
259.586	4.3653
259.805	2.01021
260.023	4.12309
260.242	3.09737
260.461	2.01939
260.68	1.23285
260.898	3.7645
261.117	1.35135
261.336	0.94253
261.554	3.11251
261.773	3.02988
261.992	0.78161
262.21	2.94151
262.429	3.85139
262.648	6.3637
262.866	7.31865
263.085	4.98627
263.303	3.97163
263.522	7.55955
263.74	7.96122
263.959	12.7183
264.178	6.51559
264.396	5.68198
264.615	4.04961
264.833	9.68957
265.051	8.65109
265.27	8.46944
265.488	9.18693
265.707	5.43374
265.925	9.0309
266.144	3.90834
266.362	5.37811
266.58	5.2547
266.799	3.90793
267.017	5.10719
267.235	4.59206
267.454	2.50513
267.672	1.78319
267.89	3.91259
268.109	3.97908
268.327	3.6741
268.545	1.37612
268.763	3.37292
268.982	1.41402
269.2	4.70088
269.418	2.38013
269.636	1.75902
269.854	3.53928
270.073	3.22556
270.291	1.32849
270.509	1.79402
270.727	3.70658
270.945	6.00773
271.163	6.02435
271.381	1.41411
271.599	2.65134
271.817	4.35141
272.036	1.65727
272.254	2.73157
272.472	2.21473
272.69	2.1495
272.908	2.03259
273.126	3.98844
273.344	4.80322
273.562	1.91574
273.779	2.4175
273.997	3.4019
274.215	3.85678
274.433	2.72714
274.651	4.09204
274.869	4.09785
275.087	2.46116
275.305	3.75742
275.523	2.0034
275.74	3.01902
275.958	4.87771
276.176	7.09439
276.394	2.3037
276.612	2.96011
276.829	2.64958
277.047	2.29663
277.265	2.62942
277.483	3.39374
277.7	3.80298
277.918	3.1498
278.136	5.43511
278.353	2.78795
278.571	1.41387
278.789	3.89903
279.006	1.11173
279.224	2.65178
279.442	4.30473
279.659	2.79066
279.877	2.37011
280.094	4.71045
280.312	0.94739
280.529	2.94249
280.747	0.77973
280.964	2.38526
281.182	5.22525
281.399	2.31564
281.617	3.46118
281.834	2.47198
282.052	1.96902
282.269	2.64824
282.487	2.43106
282.704	1.83698
282.921	2.09198
283.139	2.85403
283.356	3.686
283.574	3.17514
283.791	1.77507
284.008	4.62378
284.226	2.29228
284.443	2.77755
284.66	3.64045
284.877	2.80046
285.095	2.01802
285.312	1.26954
285.529	1.0087
285.746	0.87735
285.964	1.84639
286.181	1.09005
286.398	1.81131
286.615	2.28337
286.832	2.3947
287.05	0.8638
287.267	1.57566
287.484	1.8314
287.701	2.45581
287.918	2.35568
288.135	2.4625
288.352	1.06932
288.569	1.35822
288.786	2.28493
289.003	1.5368
289.22	2.43219
289.437	1.68961
289.654	2.50357
289.871	2.89117
290.088	2.74761
290.305	2.15249
290.522	1.66388
290.739	1.82807
290.956	2.93932
291.173	3.40224
291.39	3.19091
291.607	2.27165
291.824	1.7497
292.04	1.08005
292.257	2.73046
292.474	2.80429
292.691	1.70168
292.908	1.14851
293.125	1.74701
293.341	0.89685
293.558	4.65103
293.775	1.88246
293.992	1.91814
294.208	0.70339
294.425	1.09285
294.642	1.65788
294.858	2.67101
295.075	0.60437
295.292	1.84557
295.508	2.14332
295.725	3.57546
295.942	1.64132
296.158	1.05024
296.375	1.85077
296.591	1.44829
296.808	1.52891
297.024	1.79078
297.241	2.00704
297.458	2.13081
297.674	0.26246
297.891	1.73771
298.107	1.24888
298.323	0.99873
298.54	2.5168
298.756	1.05686
298.973	0.56149
299.189	2.62783
299.406	1.08205
299.622	2.61771
299.838	2.57525
300.055	2.5192
300.271	0.73812
300.487	0.90533
300.704	1.20328
300.92	0.63826
301.136	3.50621
301.353	2.42905
301.569	1.91215
301.785	2.11834
302.001	2.40041
302.218	2.28267
302.434	2.24944
302.65	0.64213
302.866	1.49445
303.083	3.53333
303.299	3.23707
303.515	1.84186
303.731	2.00233
303.947	0.74287
304.163	0.97222
304.379	1.85933
304.595	2.15821
304.812	1.25614
305.028	1.11848
305.244	1.49133
305.46	2.68091
305.676	2.66868
305.892	2.87924
306.108	1.80573
306.324	1.45747
306.54	3.51669
306.756	2.48885
306.972	2.54168
307.187	1.53707
307.403	3.10678
307.619	1.28192
307.835	2.64784
308.051	2.99541
308.267	0.65757
308.483	2.63459
308.699	2.33198
308.914	1.9782
309.13	1.73845
309.346	0.3679
309.562	0.93017
309.778	0.51471
309.993	2.20576
310.209	1.62081
310.425	0.70793
310.641	1.58735
310.856	0.92264
311.072	0.83683
311.288	1.6533
311.503	1.75691
311.719	0.44645
311.935	0.31143
312.15	2.06356
312.366	1.82609
312.581	2.38343
312.797	1.74633
313.013	2.40067
313.228	1.46284
313.444	1.91229
313.659	1.38583
313.875	2.06749
314.09	1.85681
314.306	2.86318
314.521	2.5097
314.737	2.3856
314.952	2.08898
315.168	1.70264
315.383	2.49059
315.599	1.57108
315.814	1.6067
316.029	2.51458
316.245	0.68927
316.46	0.7581
316.675	2.98135
316.891	3.62241
317.106	4.12052
317.321	2.40883
317.537	2.27969
317.752	2.44257
317.967	2.40416
318.183	1.17316
318.398	1.57446
318.613	2.72673
318.828	2.86144
319.043	2.49304
319.259	1.48925
319.474	2.26799
319.689	2.80623
319.904	0.53374
320.119	2.53237
320.334	2.1612
320.549	1.75896
320.765	2.77904
320.98	2.1135
321.195	2.77851
321.41	1.57069
321.625	2.53556
321.84	3.25771
322.055	3.58142
322.27	1.1362
322.485	0.95473
322.7	2.09451
322.915	2.97466
323.13	1.07306
323.345	3.27078
323.56	2.58228
323.775	2.55298
323.989	2.41194
324.204	2.09589
324.419	2.51246
324.634	0.97045
324.849	1.72438
325.064	4.14855
325.279	2.91061
325.493	2.54995
325.708	2.72812
325.923	1.27438
326.138	1.30944
326.352	3.27698
326.567	2.64535
326.782	1.47189
326.997	1.20737
327.211	2.42626
327.426	2.37654
327.641	1.62643
327.855	0.46289
328.07	2.39385
328.285	3.33873
328.499	1.66663
328.714	2.33326
328.928	2.73935
329.143	2.14763
329.358	2.82905
329.572	2.74403
329.787	3.12555
330.001	4.08405
330.216	0.65275
330.43	3.63512
330.645	3.55505
330.859	2.6456
331.074	1.34784
331.288	2.14797
331.503	3.14135
331.717	1.03158
331.931	1.94239
332.146	1.96428
332.36	3.42241
332.575	2.39764
332.789	2.21044
333.003	1.75935
333.218	2.36584
333.432	1.73888
333.646	2.46647
333.86	3.07359
334.075	3.58383
334.289	1.89829
334.503	1.48157
334.717	2.41622
334.932	2.19406
335.146	3.31387
335.36	1.72922
335.574	2.43975
335.788	2.32029
336.003	2.96002
336.217	2.5116
336.431	2.69194
336.645	1.56294
336.859	1.07583
337.073	1.80594
337.287	2.24885
337.501	1.1943
337.715	2.1543
337.929	2.63271
338.143	1.04998
338.357	1.91099
338.571	1.16677
338.785	2.39706
338.999	1.40197
339.213	1.71353
339.427	0.7547
339.641	3.02146
339.855	1.70101
340.069	1.69109
340.283	2.83487
340.497	3.5021
340.711	2.16277
340.924	1.55319
341.138	0.9313
341.352	0.76155
341.566	2.16866
341.78	0.63908
341.993	1.49292
342.207	1.02682
342.421	2.2168
342.635	2.06136
342.848	1.40552
343.062	0.23566
343.276	1.45763
343.49	3.92469
343.703	1.48686
343.917	2.52213
344.131	2.72259
344.344	1.24489
344.558	1.50025
344.771	1.15635
344.985	3.05906
345.199	3.05767
345.412	2.06179
345.626	2.05237
345.839	0.5942
346.053	0.86187
346.266	1.00247
346.48	2.60735
346.693	2.14867
346.907	2.40809
347.12	1.27271
347.334	2.24136
347.547	2.09741
347.76	1.74517
347.974	2.85172
348.187	2.11363
348.401	1.7118
348.614	1.57572
348.827	1.73871
349.041	2.51085
349.254	0.61677
349.467	1.57338
349.681	0.72686
349.894	1.39349
350.107	2.96979
350.32	3.31223
350.534	0.48477
350.747	1.45647
350.96	1.2151
351.173	1.30526
351.386	1.51561
351.6	1.47134
351.813	1.19889
352.026	1.90166
352.239	0.83936
352.452	1.14066
352.665	2.39616
352.878	1.48385
353.092	3.47492
353.305	2.25193
353.518	2.11324
353.731	1.21027
353.944	2.91902
354.157	1.17268
354.37	1.03454
354.583	0.87582
354.796	0.56951
355.009	2.59319
355.222	1.86982
355.435	1.76161
355.647	2.59974
355.86	0.88649
356.073	1.5586
356.286	1.31267
356.499	2.27175
356.712	2.02217
356.925	2.08472
357.138	2.51841
357.35	0.91841
357.563	1.40249
357.776	1.70947
357.989	1.25579
358.201	2.20911
358.414	1.57666
358.627	2.65729
358.84	1.46233
359.052	0.93761
359.265	0.83396
359.478	2.49205
359.69	-0.3008
359.903	1.91318
360.116	2.22209
360.328	0.50218
360.541	2.28432
360.753	0.81427
360.966	1.06171
361.179	1.18836
361.391	1.07525
361.604	0.74898
361.816	1.00691
362.029	0.9913
362.241	0.85562
362.454	1.00747
362.666	0.76689
362.879	1.41528
363.091	1.31597
363.304	0.78388
363.516	1.42917
363.728	0.63465
363.941	1.81512
364.153	0.94039
364.366	-0.07093
364.578	0.77322
364.79	1.73196
365.003	1.26327
365.215	1.27385
365.427	1.83612
365.639	2.39375
365.852	1.72793
366.064	3.06734
366.276	1.10951
366.488	1.93944
366.701	1.1562
366.913	1.391
367.125	1.36249
367.337	1.0804
367.549	1.06943
367.762	1.57892
367.974	1.58139
368.186	0.82198
368.398	2.20548
368.61	1.93764
368.822	1.89648
369.034	1.55414
369.246	2.00534
369.458	3.33283
369.67	0.89566
369.882	2.79352
370.094	0.12302
370.306	2.81219
370.518	1.26168
370.73	0.7386
370.942	0.871
371.154	1.17197
371.366	1.08839
371.578	1.58269
371.79	0.7488
372.002	2.34434
372.214	2.76716
372.425	1.62693
372.637	2.27688
372.849	1.4485
373.061	-0.03928
373.273	1.68441
373.484	1.8983
373.696	2.03969
373.908	-0.16606
374.12	2.11344
374.331	1.87041
374.543	0.87395
374.755	0.58323
374.967	1.70596
375.178	1.82916
375.39	1.32104
375.602	1.55007
375.813	0.62542
376.025	0.40698
376.236	1.31158
376.448	1.4926
376.66	0.91383
376.871	1.04481
377.083	2.16796
377.294	2.19347
377.506	0.93545
377.717	2.2554
377.929	1.28811
378.14	0.7326
378.352	1.77612
378.563	1.63726
378.775	2.34542
378.986	0.92585
379.197	1.37985
379.409	1.04839
379.62	2.05061
379.832	1.6437
380.043	1.13517
380.254	1.3392
380.466	0.49905
380.677	3.45352
380.888	3.05159
381.1	3.2331
381.311	2.80544
381.522	1.48418
381.733	3.42529
381.945	1.12673
382.156	1.4924
382.367	1.06463
382.578	3.33276
382.789	3.20332
383.001	1.11321
383.212	2.05558
383.423	2.31095
383.634	2.13024
383.845	1.63435
384.056	1.04364
384.267	1.15765
384.478	1.20405
384.69	0.54523
384.901	1.76547
385.112	1.56347
385.323	2.29398
385.534	1.66355
385.745	1.59255
385.956	1.62549
386.167	0.63377
386.378	1.55923
386.588	0.26223
386.799	0.81887
387.01	0.11942
387.221	1.97999
387.432	1.16605
387.643	2.67113
387.854	1.2863
388.065	1.0709
388.275	1.12355
388.486	1.13651
388.697	1.3328
388.908	1.16709
389.119	2.22855
389.329	2.38056
389.54	1.30166
389.751	1.63909
389.962	2.06299
390.172	1.50465
390.383	0.89664
390.594	0.98675
390.804	0.76469
391.015	0.7605
391.226	1.25523
391.436	1.51011
391.647	1.6187
391.858	1.70431
392.068	0.23555
392.279	0.36174
392.489	1.18858
392.7	2.09109
392.91	0.52939
393.121	0.73464
393.331	1.62848
393.542	1.92285
393.752	1.43734
393.963	1.21502
394.173	1.13211
394.384	1.54
394.594	1.07981
394.804	0.47426
395.015	1.27577
395.225	1.4281
395.436	0.53478
395.646	1.76749
395.856	0.61238
396.067	0.55368
396.277	1.99452
396.487	1.35661
396.697	1.0966
396.908	1.67407
397.118	1.81543
397.328	1.45114
397.538	2.03878
397.749	0.69078
397.959	1.7859
398.169	1.87741
398.379	0.48046
398.589	1.72258
398.8	1.24524
399.01	0.99483
399.22	1.18808
399.43	2.95175
399.64	0.88194
399.85	1.73288
400.06	1.01511
400.27	0.88465
400.48	1.34264
400.69	2.4782
400.9	0.97441
401.11	0.85423
401.32	1.97432
401.53	1.13832
401.74	2.48121
401.95	1.94608
402.16	0.46715
402.37	1.41392
402.58	0.81482
402.79	1.89691
403	1.87407
403.209	1.0042
403.419	1.87631
403.629	0.88345
403.839	1.6747
404.049	1.83591
404.258	0.69964
404.468	0.56473
404.678	1.61642
404.888	1.58292
405.097	0.53103
405.307	1.23264
405.517	1.51764
405.727	1.31456
405.936	1.00378
406.146	1.44183
406.356	2.21422
406.565	1.33987
406.775	0.80218
406.984	0.81162
407.194	2.49098
407.404	1.33186
407.613	1.59124
407.823	1.98809
408.032	2.01929
408.242	2.08062
408.451	1.07025
408.661	1.28141
408.87	2.41973
409.08	0.91261
409.289	1.79663
409.499	1.26133
409.708	1.48717
409.918	0.10077
410.127	1.22209
410.336	2.24173
410.546	1.74148
410.755	0.84402
410.964	1.03366
411.174	0.71717
411.383	1.63961
411.592	1.76179
411.802	0.70228
412.011	2.13076
412.22	1.33311
412.429	2.51516
412.639	2.23194
412.848	2.24659
413.057	2.40171
413.266	2.23747
413.475	1.25963
413.685	1.99176
413.894	1.83243
414.103	2.3077
414.312	1.87398
414.521	1.35397
414.73	1.54992
414.939	2.74142
415.148	1.87279
415.357	1.53942
415.566	1.10608
415.776	1.13981
415.985	0.99747
416.194	1.82913
416.403	2.34986
416.611	0.50089
416.82	0.81737
417.029	1.33201
417.238	0.91617
417.447	0.69948
417.656	0.91754
417.865	0.72908
418.074	0.98876
418.283	1.21771
418.492	1.78553
418.7	1.70516
418.909	2.35554
419.118	1.48518
419.327	1.72986
419.536	1.48541
419.744	1.07747
419.953	2.2511
420.162	2.24138
420.371	1.14046
420.579	1.10452
420.788	2.08284
420.997	2.05266
421.205	2.03817
421.414	1.78216
421.623	1.78148
421.831	1.31015
422.04	2.20797
422.249	1.41208
422.457	1.93492
422.666	1.35897
422.874	2.35724
423.083	2.34772
423.291	2.19464
423.5	1.84347
423.708	2.22365
423.917	2.48931
424.125	1.9167
424.334	1.67395
424.542	3.47112
424.751	2.73607
424.959	2.48937
425.167	2.8618
425.376	2.68025
425.584	2.03968
425.793	2.37828
426.001	1.33169
426.209	2.33566
426.418	1.40363
426.626	1.43898
426.834	1.2031
427.042	1.60137
427.251	1.24004
427.459	2.04765
427.667	1.70032
427.875	0.9203
428.084	1.31252
428.292	2.39074
428.5	1.74976
428.708	1.17477
428.916	1.10193
429.124	1.78332
429.333	1.44509
429.541	1.49465
429.749	1.69668
429.957	1.55497
430.165	3.0755
430.373	0.95112
430.581	1.73672
430.789	2.42167
430.997	1.46478
431.205	1.18313
431.413	1.73833
431.621	1.42071
431.829	2.05909
432.037	1.28667
432.245	1.94239
432.453	1.95426
432.661	1.51076
432.869	2.79961
433.076	1.16194
433.284	1.76119
433.492	2.16747
433.7	2.48161
433.908	1.5041
434.116	1.83105
434.323	1.83812
434.531	1.76891
434.739	1.98142
434.947	2.22949
435.154	2.16647
435.362	1.87936
435.57	1.62689
435.778	1.39847
435.985	1.8434
436.193	1.45878
436.401	2.37367
436.608	1.81847
436.816	1.46484
437.023	2.69282
437.231	2.6644
437.439	2.00272
437.646	2.03187
437.854	2.01882
438.061	2.30355
438.269	1.7319
438.476	2.22104
438.684	1.88824
438.891	1.6938
439.099	1.47277
439.306	1.18215
439.514	1.41852
439.721	2.31714
439.929	1.80557
440.136	2.5358
440.343	2.40106
440.551	2.12123
440.758	3.79947
440.965	2.71874
441.173	2.35399
441.38	1.94447
441.587	2.41201
441.795	1.94902
442.002	2.16544
442.209	2.22637
442.416	2.48082
442.624	2.27323
442.831	2.16367
443.038	1.65254
443.245	1.3936
443.452	1.6612
443.66	2.31523
443.867	1.4533
444.074	1.51745
444.281	1.58338
444.488	1.78498
444.695	2.0189
444.902	1.86914
445.109	2.57538
445.316	2.13755
445.523	2.12615
445.73	1.91495
445.937	2.49845
446.144	2.86931
446.351	3.03619
446.558	2.05481
446.765	3.34332
446.972	3.31137
447.179	2.54609
447.386	3.58426
447.593	2.28398
447.8	3.24467
448.007	2.20875
448.214	2.25752
448.42	1.82558
448.627	2.67068
448.834	1.88845
449.041	1.94612
449.248	1.89046
449.454	2.44601
449.661	3.06838
449.868	1.81625
450.075	1.60585
450.281	1.08758
450.488	1.33037
450.695	1.6655
450.901	1.47101
451.108	1.76365
451.315	2.48071
451.521	1.92676
451.728	2.54127
451.935	1.67733
452.141	1.87192
452.348	2.02077
452.554	1.85029
452.761	1.76216
452.967	3.00195
453.174	2.12283
453.38	2.13853
453.587	1.32438
453.793	2.06371
454	2.62536
454.206	3.24739
454.413	2.78386
454.619	2.37777
454.825	1.73036
455.032	2.45561
455.238	2.54052
455.445	1.38829
455.651	2.14334
455.857	1.08554
456.064	1.84278
456.27	1.89497
456.476	1.94612
456.682	1.28833
456.889	2.27397
457.095	2.48548
457.301	3.43353
457.507	2.19149
457.714	2.09245
457.92	2.07547
458.126	1.53871
458.332	1.81179
458.538	1.68955
458.744	1.98083
458.951	2.04559
459.157	3.56473
459.363	2.47304
459.569	2.48896
459.775	3.134
459.981	2.41371
460.187	2.69331
460.393	3.0083
460.599	3.54826
460.805	2.84547
461.011	2.51985
461.217	3.11019
461.423	2.92212
461.629	2.08022
461.835	2.64379
462.041	2.03097
462.247	3.15791
462.453	2.13726
462.658	2.14439
462.864	2.5376
463.07	2.42827
463.276	2.37195
463.482	2.32651
463.688	2.96425
463.893	1.88402
464.099	1.91866
464.305	3.05858
464.511	1.91706
464.716	2.32429
464.922	2.6345
465.128	1.89212
465.333	3.24726
465.539	2.55392
465.745	2.18815
465.95	2.36756
466.156	3.92169
466.362	2.99363
466.567	2.15046
466.773	2.09779
466.978	3.33112
467.184	1.80744
467.389	1.13793
467.595	2.60029
467.8	1.80062
468.006	3.1268
468.211	3.08774
468.417	1.82602
468.622	2.46929
468.828	2.82287
469.033	2.43484
469.239	4.1151
469.444	2.08313
469.649	2.89488
469.855	2.25961
470.06	2.35977
470.266	1.75415
470.471	2.72915
470.676	2.72995
470.881	1.4004
471.087	2.82363
471.292	3.69029
471.497	1.65083
471.703	2.09379
471.908	2.12455
472.113	2.37005
472.318	2.93664
472.523	1.79794
472.729	2.55772
472.934	2.83131
473.139	2.19209
473.344	2.72344
473.549	3.15216
473.754	2.11037
473.959	4.03416
474.164	2.19328
474.369	2.20075
474.575	2.74848
474.78	2.54401
474.985	2.14954
475.19	1.31437
475.395	1.8787
475.6	2.33737
475.804	3.27502
476.009	2.40532
476.214	2.34967
476.419	2.04716
476.624	1.49715
476.829	1.84883
477.034	2.66454
477.239	1.88294
477.444	2.7257
477.648	2.58866
477.853	2.73256
478.058	2.11871
478.263	2.04833
478.468	1.70572
478.672	1.86098
478.877	3.1846
479.082	3.41515
479.287	2.51994
479.491	2.35637
479.696	1.78837
479.901	2.81994
480.105	2.7257
480.31	2.01483
480.515	2.26169
480.719	3.61885
480.924	1.92521
481.128	1.72203
481.333	2.5283
481.538	2.63934
481.742	2.32284
481.947	3.09984
482.151	3.26263
482.356	3.07655
482.56	4.11968
482.765	4.43169
482.969	5.57769
483.174	6.22632
483.378	7.65922
483.582	7.35985
483.787	8.38678
483.991	8.16994
484.196	8.42441
484.4	8.1701
484.604	8.82665
484.809	7.30974
485.013	7.52115
485.217	6.51995
485.422	5.73079
485.626	5.22988
485.83	5.01401
486.034	4.84161
486.239	4.74366
486.443	4.83053
486.647	4.60672
486.851	5.46169
487.055	6.16141
487.26	5.47455
487.464	6.00824
487.668	5.34909
487.872	5.34715
488.076	5.95416
488.28	5.56377
488.484	5.06487
488.688	4.99826
488.892	5.11952
489.096	4.76353
489.3	4.21289
489.504	4.09324
489.708	4.16965
489.912	4.09056
490.116	3.93757
490.32	3.26122
490.524	3.90928
490.728	4.19328
490.932	4.12479
491.136	4.168
491.34	5.09317
491.544	5.22518
491.748	4.89768
491.951	5.01827
492.155	4.76348
492.359	4.8798
492.563	3.85059
492.767	3.82839
492.97	3.49239
493.174	2.95011
493.378	3.02502
493.582	2.31219
493.785	2.48078
493.989	2.55389
494.193	2.5136
494.396	2.08497
494.6	2.60637
494.804	2.29559
495.007	2.03052
495.211	2.19056
495.414	2.43503
495.618	2.54163
495.822	3.09191
496.025	2.43285
496.229	2.92632
496.432	2.14134
496.636	2.49469
496.839	2.53363
497.043	3.4487
497.246	2.7328
497.45	2.29673
497.653	2.51225
497.856	2.61635
498.06	1.95029
498.263	2.39249
498.467	2.10298
498.67	3.00222
498.873	2.67541
499.077	2.23492
499.28	2.26854
499.483	2.68529
499.686	2.89081
499.89	2.70951
500.093	3.00738
500.296	2.02497
500.499	3.31851
500.703	2.49268
500.906	2.53004
501.109	3.5833
501.312	2.51547
501.515	2.42834
501.719	2.73626
501.922	3.32175
502.125	2.56795
502.328	2.4941
502.531	1.84436
502.734	2.59951
502.937	1.52214
503.14	2.60191
503.343	1.99167
503.546	2.14018
503.749	2.11613
503.952	2.74011
504.155	1.90285
504.358	2.89607
504.561	2.4769
504.764	1.76897
504.967	2.45831
505.17	2.43522
505.373	3.33844
505.576	2.42517
505.778	2.95436
505.981	2.25575
506.184	3.2982
506.387	1.65115
506.59	3.76854
506.793	3.21874
506.995	2.72399
507.198	1.38579
507.401	2.54566
507.604	2.82638
507.806	1.95289
508.009	1.99236
508.212	2.84338
508.414	2.07351
508.617	2.00335
508.82	2.43096
509.022	3.07722
509.225	2.60373
509.427	1.57672
509.63	3.0841
509.833	2.44949
510.035	2.32617
510.238	1.62106
510.44	3.24399
510.643	1.30414
510.845	3.77892
511.048	2.67624
511.25	2.18781
511.453	2.39049
511.655	2.57616
511.858	2.34128
512.06	2.90674
512.262	2.46464
512.465	2.86533
512.667	2.25655
512.869	1.81719
513.072	2.65964
513.274	3.03406
513.476	2.78375
513.679	2.99448
513.881	1.89755
514.083	3.39517
514.286	2.12285
514.488	2.13138
514.69	2.02599
514.892	1.72567
515.094	2.75404
515.297	2.13166
515.499	2.67353
515.701	1.95805
515.903	3.28024
516.105	3.39518
516.307	2.89311
516.509	1.3627
516.711	1.87664
516.913	2.32859
517.116	2.41653
517.318	2.13263
517.52	2.9553
517.722	2.63914
517.924	1.8038
518.126	2.77257
518.328	2.1704
518.529	2.88553
518.731	3.68991
518.933	2.21042
519.135	2.51972
519.337	3.29259
519.539	2.71817
519.741	1.55116
519.943	2.33065
520.145	2.27221
520.346	2.72902
520.548	2.23614
520.75	2.68178
520.952	2.29736
521.153	2.63607
521.355	2.77866
521.557	2.01342
521.759	2.68585
521.96	2.38081
522.162	1.93081
522.364	2.87762
522.565	2.10186
522.767	2.94317
522.969	3.22098
523.17	2.58043
523.372	2.73055
523.573	2.12054
523.775	2.36314
523.977	1.90944
524.178	3.60645
524.38	2.04021
524.581	2.67304
524.783	2.12753
524.984	2.84006
525.186	2.47176
525.387	3.00278
525.589	2.6074
525.79	2.50275
525.991	2.25723
526.193	2.86923
526.394	2.04823
526.596	3.07186
526.797	3.00356
526.998	2.77849
527.2	2.3808
527.401	3.76508
527.602	3.85258
527.803	5.18055
528.005	5.00077
528.206	5.62193
528.407	6.00523
528.608	5.56739
528.81	5.74215
529.011	5.06527
529.212	6.1277
529.413	5.31343
529.614	4.96985
529.815	5.17995
530.017	4.62157
530.218	3.88569
530.419	3.38265
530.62	3.36608
530.821	3.33644
531.022	2.21125
531.223	3.28563
531.424	3.25266
531.625	3.11439
531.826	2.97647
532.027	3.06985
532.228	3.98434
532.429	3.44818
532.63	3.40883
532.831	3.8607
533.032	3.7259
533.233	4.15775
533.433	3.9145
533.634	4.15731
533.835	3.60493
534.036	3.25132
534.237	3.35209
534.438	2.99766
534.638	2.47733
534.839	2.44232
535.04	2.84063
535.241	2.38447
535.441	3.45699
535.642	2.82299
535.843	1.94382
536.043	2.13544
536.244	2.37664
536.445	2.57914
536.645	3.29515
536.846	2.81765
537.047	3.54338
537.247	2.20684
537.448	2.48182
537.648	2.57588
537.849	2.4567
538.049	2.36819
538.25	2.87071
538.451	2.78718
538.651	2.02994
538.851	2.87009
539.052	3.23063
539.252	2.99571
539.453	2.50206
539.653	2.48427
539.854	2.55771
540.054	2.57875
540.254	3.57726
540.455	3.83451
540.655	3.05331
540.855	3.8196
541.056	4.36296
541.256	4.07015
541.456	4.85383
541.657	3.85422
541.857	4.88573
542.057	3.4693
542.257	3.4235
542.458	4.07046
542.658	4.30283
542.858	2.89606
543.058	3.83832
543.258	3.29107
543.458	2.19762
543.659	1.99435
543.859	3.01763
544.059	2.97752
544.259	2.4347
544.459	3.00474
544.659	2.06104
544.859	2.67643
545.059	2.00896
545.259	2.78661
545.459	2.61096
545.659	2.87345
545.859	2.61858
546.059	2.59888
546.259	1.94642
546.459	1.52481
546.659	1.74932
546.859	2.83774
547.059	2.49619
547.258	2.68331
547.458	2.82491
547.658	1.83103
547.858	1.85838
548.058	2.66525
548.258	2.4412
548.457	1.98015
548.657	4.28733
548.857	2.32766
549.057	3.31337
549.256	3.03734
549.456	2.43901
549.656	1.23392
549.855	4.11372
550.055	2.63651
550.255	3.79601
550.454	3.09655
550.654	3.4859
550.853	3.82559
551.053	3.50358
551.253	2.93821
551.452	3.19803
551.652	2.08551
551.851	1.50059
552.051	2.55652
552.25	2.36696
552.45	2.20128
552.649	2.22445
552.849	2.14714
553.048	2.73162
553.248	2.96758
553.447	2.06102
553.646	3.30809
553.846	4.33639
554.045	3.52959
554.244	1.96567
554.444	4.08762
554.643	2.17765
554.842	4.01597
555.042	4.2988
555.241	2.50723
555.44	1.89629
555.64	2.91746
555.839	4.21222
556.038	3.19726
556.237	2.47569
556.436	2.77568
556.636	3.16495
556.835	2.21201
557.034	4.10333
557.233	2.96512
557.432	2.02425
557.631	3.81057
557.83	2.75787
558.029	2.61515
558.228	2.50653
558.427	1.93472
558.626	3.13588
558.825	2.39084
559.024	3.10952
559.223	4.42068
559.422	2.84493
559.621	3.46701
559.82	0.99393
560.019	2.80268
560.218	2.44369
560.417	0.52872
560.616	2.56356
560.815	5.43769
561.014	1.71439
561.212	3.75355
561.411	2.78905
561.61	1.49211
561.809	2.63396
562.008	4.08771
562.206	2.80591
562.405	3.14921
562.604	2.5538
562.803	2.99312
563.001	2.75946
563.2	1.85094
563.399	3.17281
563.597	1.82649
563.796	3.17407
563.995	1.50548
564.193	3.31398
564.392	2.584
564.59	4.60909
564.789	1.37862
564.988	2.47686
565.186	2.94347
565.385	2.42559
565.583	2.29858
565.782	2.56605
565.98	2.34737
566.179	2.60811
566.377	1.61307
566.575	1.8337
566.774	3.41403
566.972	3.18374
567.171	4.12306
567.369	3.72132
567.567	2.66953
567.766	3.01115
567.964	1.22147
568.162	3.0425
568.361	3.84178
568.559	2.67594
568.757	3.1334
568.956	3.02677
569.154	2.82943
569.352	3.6133
569.55	2.59224
569.748	2.53089
569.947	2.05992
570.145	2.10778
570.343	1.75286
570.541	3.84121
570.739	1.5218
570.937	2.72371
571.135	3.0675
571.333	4.22448
571.532	3.94412
571.73	2.96287
571.928	3.32104
572.126	3.09951
572.324	2.24222
572.522	3.74002
572.72	4.63904
572.918	2.72783
573.116	2.83672
573.313	2.77359
573.511	2.53682
573.709	2.38521
573.907	3.11007
574.105	2.39444
574.303	1.27611
574.501	1.54997
574.699	2.79271
574.896	2.92673
575.094	3.17658
575.292	1.58737
575.49	3.46688
575.688	2.48285
575.885	3.62693
576.083	4.18702
576.281	3.09018
576.478	2.42177
576.676	3.35856
576.874	1.75933
577.071	2.416
577.269	4.87729
577.467	2.67813
577.664	3.04385
577.862	3.59739
578.059	2.3143
578.257	3.67312
578.455	2.70229
578.652	3.0537
578.85	1.193
579.047	3.06464
579.245	2.8221
579.442	3.11329
579.64	3.07196
579.837	1.39341
580.034	5.40061
580.232	2.72989
580.429	1.78384
580.627	3.56076
580.824	4.26442
581.021	3.33271
581.219	2.9146
581.416	2.1757
581.613	4.32386
581.811	4.44019
582.008	2.32244
582.205	3.98092
582.402	3.38872
582.6	5.30258
582.797	3.37153
582.994	3.68986
583.191	4.05454
583.388	3.58564
583.586	3.86825
583.783	4.65479
583.98	2.53054
584.177	3.58351
584.374	0.15261
584.571	3.34146
584.768	3.52901
584.965	2.82467
585.162	3.93873
585.359	5.15778
585.556	3.31507
585.753	3.42744
585.95	2.14431
586.147	2.73151
586.344	4.05394
586.541	3.22476
586.738	2.08948
586.935	3.63074
587.132	2.58919
587.329	4.53032
587.526	3.15768
587.722	8.4366
587.919	1.66843
588.116	3.7552
588.313	4.79392
588.51	5.77893
588.706	2.92432
588.903	3.79784
589.1	4.24276
589.297	6.14962
589.493	3.29232
589.69	3.81155
589.887	2.70477
590.083	2.21147
590.28	2.47473
590.477	4.18016
590.673	3.83644
590.87	4.73152
591.067	2.99806
591.263	4.03217
591.46	3.78307
591.656	3.2616
591.853	5.16271
592.049	2.31539
592.246	2.73425
592.442	4.79107
592.639	4.49411
592.835	2.19595
593.032	3.74211
593.228	2.00013
593.425	2.07377
593.621	1.93921
593.817	3.2849
594.014	2.57221
594.21	3.13352
594.406	4.47959
594.603	3.44086
594.799	2.7264
594.995	0.8206
595.192	4.20305
595.388	2.61816
595.584	2.58733
595.78	1.90719
595.977	5.58379
596.173	4.7257
596.369	2.9979
596.565	2.11203
596.761	1.71772
596.957	4.32719
597.154	2.13667
597.35	2.46907
597.546	2.24642
597.742	3.74189
597.938	3.17689
598.134	2.24559
598.33	3.39642
598.526	4.56964
598.722	3.98831
598.918	5.30124
599.114	3.9298
599.31	2.93624
599.506	3.66087
599.702	2.96833
599.898	3.82471
600.094	4.77808
600.29	4.463
600.485	4.35281
600.681	3.30939
600.877	5.51427
601.073	3.651
601.269	6.34108
601.465	5.05907
601.66	2.61833
601.856	1.58077
602.052	5.4789
602.248	2.62018
602.443	1.05218
602.639	1.98099
602.835	2.50629
603.03	2.39945
603.226	4.07503
603.422	2.16673
603.617	2.78799
603.813	2.66468
604.009	2.45664
604.204	4.0915
604.4	1.62522
604.595	3.95331
604.791	2.14246
604.986	3.09956
605.182	2.15549
605.377	2.54995
605.573	2.37541
605.768	3.35616
605.964	3.69283
606.159	3.93759
606.355	4.73848
606.55	2.75573
606.746	4.70688
606.941	3.48778
607.136	5.78413
607.332	6.77017
607.527	2.21344
607.722	3.86947
607.918	3.48301
608.113	2.20104
608.308	4.1349
608.503	4.02132
608.699	3.62942
608.894	3.8582
609.089	2.29727
609.284	3.33571
609.479	2.46971
609.675	3.61831
609.87	2.90788
610.065	3.89896
610.26	4.28774
610.455	4.2813
610.65	3.08124
610.845	3.64382
611.04	4.31786
611.235	3.09224
611.43	2.97313
611.625	2.18038
611.82	5.47988
612.015	2.54864
612.21	5.93965
612.405	1.89307
612.6	6.07262
612.795	5.46727
612.99	5.33778
613.185	2.74507
613.38	2.58299
613.575	4.14572
613.77	7.42872
613.965	1.75767
614.159	2.49428
614.354	5.82798
614.549	5.57415
614.744	4.53739
614.938	2.70174
615.133	2.52921
615.328	5.95056
615.523	5.90839
615.717	7.47258
615.912	3.46018
616.107	4.2575
616.301	3.75896
616.496	3.01341
616.691	6.68565
616.885	5.20087
617.08	7.73777
617.274	5.94569
617.469	7.06699
617.664	5.06459
617.858	3.42062
618.053	4.35965
618.247	3.73047
618.442	1.02985
618.636	6.08904
618.831	3.62361
619.025	3.6091
619.219	8.34109
619.414	-0.28274
619.608	4.42001
619.803	2.84952
619.997	7.41965
620.191	5.83904
620.386	5.1312
620.58	4.72675
620.774	2.30449
620.969	2.01893
621.163	3.70406
621.357	2.71493
621.551	4.19505
621.746	4.71653
621.94	4.01504
622.134	9.72247
622.328	7.61567
622.522	2.55342
622.716	5.98795
622.911	5.22298
623.105	4.799
623.299	4.27018
623.493	9.30109
623.687	3.25244
623.881	4.11379
624.075	5.20154
624.269	6.02385
624.463	2.03023
624.657	1.96597
624.851	5.2649
625.045	5.46282
625.239	5.62749
625.433	3.33352
625.627	6.83084
625.821	3.00773
626.015	3.10929
626.209	4.21237
626.403	1.6377
626.596	4.44482
626.79	5.05569
626.984	2.15972
627.178	4.57169
627.372	4.68575
627.565	5.03061
627.759	1.83397
627.953	2.00881
628.147	4.81338
628.34	4.96649
628.534	7.01756
628.728	3.76571
628.921	5.7783
629.115	5.71799
629.309	5.8145
629.502	6.02091
629.696	4.62625
629.89	4.1317
630.083	4.74477
630.277	5.13604
630.47	7.52091
630.664	4.30748
630.857	2.63337
631.051	6.25776
631.244	6.73648
631.438	6.05591
631.631	3.63654
631.825	6.40558
632.018	5.64873
632.212	7.07069
632.405	6.50161
632.598	3.95728
632.792	4.67724
632.985	1.10756
633.178	3.85829
633.372	4.30434
633.565	4.48833
633.758	6.73405
633.952	3.14413
634.145	3.65228
634.338	4.54368
634.531	3.7996
634.724	3.40566
634.918	5.08977
635.111	3.90311
635.304	3.88395
635.497	8.77166
635.69	5.14485
635.883	6.40496
636.077	2.54137
636.27	5.76331
636.463	5.37507
636.656	5.71002
636.849	3.62583
637.042	5.77366
637.235	8.78517
637.428	6.00271
637.621	6.5645
637.814	7.68866
638.007	8.03121
638.2	8.20224
638.393	8.46892
638.586	3.60108
638.778	4.31317
638.971	5.53419
639.164	8.46592
639.357	6.73849
639.55	7.78578
639.743	6.53402
639.935	7.02908
640.128	9.4209
640.321	6.54612
640.514	5.61591
640.707	10.43771
640.899	6.82974
641.092	2.97903
641.285	22.06801
641.477	2.05192
641.67	9.9519
641.863	8.15375
642.055	6.30818
642.248	6.04355
642.441	4.75695
642.633	7.16246
642.826	8.68979
643.018	8.96244
643.211	9.55326
643.403	10.02049
643.596	10.45261
643.788	10.21137
643.981	5.21155
644.173	7.65375
644.366	5.52769
644.558	2.51222
644.751	7.99172
644.943	4.14493
645.135	10.60108
645.328	10.01575
645.52	7.73676
645.712	8.06681
645.905	14.00102
646.097	4.7231
646.289	7.73569
646.482	10.67297
646.674	5.33271
646.866	8.86469
647.058	7.09667
647.251	4.34937
647.443	5.15863
647.635	5.62089
647.827	4.9458
648.019	4.39543
648.211	6.60973
648.404	7.26489
648.596	10.48747
648.788	7.54641
648.98	6.59927
649.172	7.47381
649.364	7.40323
649.556	3.36378
649.748	11.4709
649.94	5.11215
650.132	8.18824
650.324	4.77441
650.516	5.32451
650.708	8.60028
650.9	3.77175
651.092	5.65563
651.284	3.22292
651.476	3.91865
651.667	7.30366
651.859	9.01366
652.051	6.26669
652.243	6.74232
652.435	5.19425
652.627	7.72381
652.818	6.72916
653.01	3.53485
653.202	5.28197
653.394	6.52473
653.585	7.71946
653.777	17.17335
653.969	10.78458
654.16	9.30606
654.352	5.20115
654.544	5.93462
654.735	10.0584
654.927	6.47843
655.118	10.62713
655.31	9.15394
655.502	9.13447
655.693	5.53897
655.885	8.15802
656.076	9.87389
656.268	7.02614
656.459	10.16029
656.651	10.22402
656.842	5.48564
657.034	4.84214
657.225	8.33832
657.416	9.50073
657.608	9.93552
657.799	6.38592
657.99	8.98141
658.182	4.37799
658.373	4.67268
658.564	8.75175
658.756	5.88035
658.947	5.60963
659.138	3.96655
659.33	4.77683
659.521	4.12077
659.712	5.38106
659.903	5.75718
660.094	5.0771
660.286	2.96756
660.477	10.03438
660.668	7.30435
660.859	6.58036
661.05	3.34056
661.241	7.72557
661.432	8.00135
661.623	6.78499
661.814	5.97002
662.006	3.49718
662.197	7.53214
662.388	9.73416
662.579	7.33206
662.77	10.72968
662.96	14.68768
663.151	9.90254
663.342	3.14593
663.533	7.57704
663.724	6.31262
663.915	12.31987
664.106	7.45142
664.297	12.5687
664.488	9.17145
664.678	7.03381
664.869	9.31559
665.06	10.67091
665.251	9.00787
665.442	9.45514
665.632	5.22312
665.823	13.68538
666.014	1.8064
666.204	9.41378
666.395	10.61189
666.586	16.13671
666.776	10.32721
666.967	12.74173
667.158	8.48389
667.348	12.96604
667.539	4.8194
667.729	9.87872
667.92	5.82089
668.111	10.50393
668.301	10.09251
668.492	7.09828
668.682	7.53077
668.873	7.31859
669.063	4.71796
669.253	8.30954
669.444	11.51672
669.634	6.91343
669.825	12.5557
670.015	10.12445
670.206	5.82135
670.396	14.05282
670.586	7.43095
670.777	10.03629
670.967	2.7791
671.157	8.42967
671.347	6.10218
671.538	13.46199
671.728	10.44884
671.918	13.78301
672.108	10.73682
672.299	8.75056
672.489	8.79025
672.679	7.30781
672.869	10.83276
673.059	13.03074
673.249	10.23158
673.44	5.77473
673.63	8.26526
673.82	11.50358
674.01	6.7059
674.2	10.35605
674.39	17.46601
674.58	10.17473
674.77	9.02347
674.96	9.23533
675.15	21.68229
675.34	12.50693
675.53	9.58466
675.72	7.67859
675.91	4.64119
676.099	13.93233
676.289	16.39624
676.479	11.98472
676.669	7.25714
676.859	10.69123
677.049	6.41074
677.238	9.45977
677.428	14.48409
677.618	10.21744
677.808	13.28764
677.997	10.24595
678.187	5.28618
678.377	8.86276
678.567	6.56803
678.756	7.16355
678.946	7.65959
679.136	4.85828
679.325	5.97363
679.515	6.50139
679.704	4.42512
679.894	10.44176
680.084	8.9542
680.273	11.81971
680.463	5.5285
680.652	5.19082
680.842	7.75525
681.031	10.43809
681.221	5.37682
681.41	8.98299
681.6	7.22476
681.789	10.93381
681.978	11.97398
682.168	9.79943
682.357	9.57414
682.547	10.33801
682.736	9.7374
682.925	12.94428
683.115	12.42824
683.304	11.80351
683.493	11.04188
683.682	10.12549
683.872	10.91948
684.061	13.72555
684.25	11.96911
684.439	17.44849
684.629	11.62526
684.818	21.76506
685.007	9.05525
685.196	8.3506
685.385	16.07315
685.574	12.15718
685.763	10.7357
685.952	10.16041
686.142	6.84329
686.331	14.51688
686.52	4.20411
686.709	16.88009
686.898	15.92198
687.087	12.5626
687.276	15.74342
687.465	15.03711
687.654	8.75511
687.842	15.97509
688.031	5.36769
688.22	14.88025
688.409	10.67674
688.598	10.90278
688.787	19.17439
688.976	10.44522
689.165	17.80828
689.353	9.60721
689.542	13.21128
689.731	14.70018
689.92	18.73633
690.108	14.38842
690.297	9.69396
690.486	11.65206
690.675	13.73177
690.863	18.4972
691.052	16.41255
691.241	12.46989
691.429	12.06272
691.618	17.46288
691.806	6.57252
691.995	11.02537
692.184	11.41069
692.372	8.12873
692.561	11.16493
692.749	11.51738
692.938	21.97754
693.126	13.67781
693.315	12.09343
693.503	14.56118
693.692	14.90126
693.88	16.6099
694.068	20.49038
694.257	12.24984
694.445	13.25921
694.634	4.28994
694.822	16.20471
695.01	17.55972
695.199	19.66371
695.387	17.78516
695.575	17.12932
695.763	12.01605
695.952	11.31247
696.14	5.84054
696.328	9.26272
696.516	13.19754
696.705	11.76448
696.893	12.98686
697.081	4.80611
697.269	15.0082
697.457	7.80856
697.645	6.71093
697.833	13.70859
698.021	8.12751
698.21	9.72815
698.398	10.01866
698.586	5.98727
698.774	5.69572
698.962	9.8095
699.15	6.7911
699.338	5.08847
699.526	11.47323
699.714	8.19608
699.901	7.5301
700.089	13.4927
700.277	8.09448
700.465	9.38267
700.653	14.31685
700.841	12.73032
701.029	7.72811
701.217	16.36668
701.404	12.57621
701.592	16.23137
701.78	21.19101
701.968	10.47857
702.155	11.57225
702.343	5.88251
702.531	18.16616
702.718	13.44855
702.906	11.78339
703.094	10.59618
703.281	18.51954
703.469	12.34235
703.657	18.67378
703.844	28.73228
704.032	20.99123
704.219	11.13366
704.407	14.45666
704.595	19.13753
704.782	15.22638
704.97	12.60231
705.157	11.63608
705.345	19.17689
705.532	26.73138
705.719	15.96446
705.907	19.31152
706.094	14.19702
706.282	22.69462
706.469	12.62421
706.656	15.14164
706.844	13.07172
707.031	18.82454
707.218	14.94566
707.406	22.28192
707.593	17.88245
707.78	18.22022
707.968	14.30487
708.155	10.14432
708.342	18.37155
708.529	17.65592
708.716	15.48303
708.904	22.48954
709.091	16.95071
709.278	8.99607
709.465	22.81818
709.652	22.2248
709.839	20.50869
710.026	16.13635
710.213	7.21395
710.4	15.25276
710.587	20.65658
710.774	22.14787
710.961	20.66514
711.148	15.2755
711.335	21.11234
711.522	15.03347
711.709	17.36596
711.896	26.80735
712.083	20.67101
712.27	10.62736
712.457	16.40533
712.644	8.86983
712.831	26.97132
713.017	14.89009
713.204	19.58887
713.391	11.93348
713.578	22.17419
713.765	24.68786
713.951	19.75025
714.138	33.34218
714.325	19.6556
714.512	17.07512
714.698	12.8335
714.885	23.89387
715.072	19.43436
715.258	17.95539
715.445	14.32556
715.631	22.62695
715.818	4.77176
716.005	14.06083
716.191	20.63656
716.378	14.53138
716.564	21.1874
716.751	13.55995
716.937	15.30374
717.124	24.09007
717.31	13.89603
717.497	26.92031
717.683	14.54696
717.869	31.02245
718.056	14.30041
718.242	21.68245
718.429	18.76491
718.615	11.04576
718.801	18.45648
718.988	24.32022
719.174	21.93658
719.36	19.27787
719.547	25.17757
719.733	20.44808
719.919	21.2126
720.105	24.63557
720.291	18.24134
720.478	20.49181
720.664	17.10163
720.85	15.25497
721.036	36.27024
721.222	29.27945
721.408	17.87282
721.595	31.22904
721.781	29.48741
721.967	28.86791
722.153	30.85192
722.339	23.14845
722.525	22.12693
722.711	14.46601
722.897	12.3375
723.083	16.98203
723.269	25.06571
723.455	36.58509
723.641	42.20196
723.827	22.74884
724.012	25.01436
724.198	19.91092
724.384	29.33769
724.57	22.48212
724.756	11.13644
724.942	7.32567
725.127	28.71635
725.313	29.86896
725.499	29.9521
725.685	33.64438
725.87	22.5281
726.056	14.61163
726.242	28.57817
726.428	11.73094
726.613	27.0109
726.799	19.39693
726.985	14.43873
727.17	11.54536
727.356	33.68554
727.541	14.5534
727.727	19.45249
727.913	26.31973
728.098	17.84923
728.284	25.70508
728.469	11.6676
728.655	14.82669
728.84	27.26001
729.026	23.60968
729.211	27.23444
729.397	22.38345
729.582	24.474
729.767	19.6758
729.953	22.57427
730.138	29.58957
730.323	6.25679
730.509	13.90258
730.694	32.06606
730.879	24.45509
731.065	22.85066
731.25	36.10749
731.435	23.6506
731.621	12.24131
731.806	18.70446
731.991	25.21181
732.176	11.39249
732.361	30.12312
732.547	24.60686
732.732	9.1289
732.917	37.26972
733.102	13.76513
733.287	17.83921
733.472	20.59895
733.657	21.9852
733.842	11.99721
734.027	20.72586
734.212	18.9257
734.397	16.06772
734.582	20.49144
734.767	27.33667
734.952	30.31917
735.137	5.43978
735.322	31.47161
735.507	20.61263
735.692	23.34475
735.877	38.27276
736.062	36.20988
736.247	24.63555
736.431	22.7968
736.616	32.6735
736.801	25.04856
736.986	22.50543
737.171	18.02938
737.355	12.81521
737.54	33.0614
737.725	22.46739
737.909	45.22845
738.094	20.13114
738.279	28.69899
738.463	23.62
738.648	28.37181
738.833	26.49191
739.017	39.93705
739.202	23.36906
739.386	22.58027
739.571	18.00348
739.756	32.60649
739.94	24.70576
740.125	33.6602
740.309	21.06117
740.494	29.67791
740.678	24.97999
740.863	28.50239
741.047	26.15528
741.231	34.25935
741.416	17.69413
741.6	35.8078
741.785	18.21887
741.969	31.6552
742.153	36.71127
742.338	7.68368
742.522	23.17277
742.706	32.37876
742.89	13.35193
743.075	26.37028
743.259	35.71584
743.443	36.51551
743.627	34.40605
743.812	46.06298
743.996	12.90891
744.18	25.5533
744.364	21.08681
744.548	48.1326
744.732	25.70173
744.916	32.11175
745.1	28.91745
745.285	23.05701
745.469	30.52954
745.653	43.90574
745.837	15.98239
746.021	45.76709
746.205	35.34416
746.389	27.56359
746.573	21.94971
746.757	39.22173
746.94	21.36623
747.124	36.94873
747.308	16.24483
747.492	36.76475
747.676	23.06791
747.86	48.14106
748.044	25.05489
748.227	13.54435
748.411	63.77095
748.595	33.16238
748.779	21.52282
748.963	30.2805
749.146	27.89264
749.33	22.06628
749.514	19.14212
749.697	36.34205
749.881	21.15623
750.065	16.46165
750.248	26.15165
750.432	49.46967
750.616	28.19732
750.799	15.5608
750.983	47.29202
751.166	55.01121
751.35	13.31426
751.533	31.95403
751.717	41.6847
751.9	41.19789
752.084	23.93513
752.267	15.98543
752.451	17.00351
752.634	29.6043
752.818	31.16947
753.001	35.6369
753.184	36.43796
753.368	29.4133
753.551	1.35988
753.734	20.86211
753.918	50.1408
754.101	21.60763
754.284	34.98861
754.467	22.45917
754.651	23.14445
754.834	24.50588
755.017	39.10733
755.2	37.99621
755.384	13.90143
755.567	31.15342
755.75	38.58349
755.933	22.91883
756.116	29.47061
756.299	25.35455
756.482	21.12246
756.665	34.80013
756.848	30.91565
757.032	34.00625
757.215	14.56633
757.398	19.35853
757.581	18.81605
757.764	52.78651
757.947	30.16145
758.129	40.80721
758.312	3.17996
758.495	27.0291
758.678	25.06848
758.861	28.48304
759.044	52.63889
759.227	21.65428
759.41	18.74813
759.592	34.47923
759.775	28.96604
759.958	40.51345
760.141	13.16775
760.324	47.57377
760.506	42.33148
760.689	33.909
760.872	54.17568
761.054	35.7189
761.237	21.21136
761.42	31.88757
761.602	35.26616
761.785	30.36116
761.968	39.06115
762.15	47.94702
762.333	26.79061
762.515	33.06857
762.698	24.19057
762.88	33.57739
763.063	30.41848
763.245	36.51525
763.428	19.91117
763.61	21.19325
763.793	16.12584
763.975	29.53239
764.158	20.92363
764.34	21.33175
764.522	16.56149
764.705	22.29235
764.887	41.26965
765.069	14.59184
765.252	34.08317
765.434	35.77956
765.616	27.77738
765.799	20.74976
765.981	33.37248
766.163	17.39348
766.345	37.18918
766.528	20.75124
766.71	6.05663
766.892	30.83889
767.074	43.05549
767.256	25.907
767.438	48.24656
767.62	32.47576
767.802	57.20174
767.985	39.78004
768.167	51.50158
768.349	25.84295
768.531	36.91623
768.713	34.7029
768.895	44.75005
769.077	33.63976
769.259	62.86109
769.441	89.39387
769.623	43.78399
769.804	53.82535
769.986	52.72343
770.168	68.3947
770.35	74.68006
770.532	61.28387
770.714	63.58215
770.896	68.29446
771.077	20.39203
771.259	65.25375
771.441	57.60865
771.623	71.02779
771.804	93.41821
771.986	18.95126
772.168	40.63526
772.35	66.5101
772.531	97.09567
772.713	55.23961
772.894	74.35105
773.076	49.6157
773.258	42.43722
773.439	75.16234
773.621	75.93731
773.802	31.67392
773.984	53.22085
774.166	56.92533
774.347	89.61662
774.529	67.55845
774.71	19.5137
774.891	47.96498
775.073	47.26302
775.254	83.37408
775.436	41.7987
775.617	87.32255
775.799	40.33777
775.98	83.51827
776.161	85.80557
776.343	85.78186
776.524	52.15054
776.705	48.31012
776.886	23.54794
777.068	48.69471
777.249	114.67891
777.43	91.9876
777.611	31.03528
777.793	54.3013
777.974	89.32233
778.155	47.39212
778.336	42.13147
778.517	91.73874
778.698	43.02908
778.879	19.28534
779.061	7.74104
779.242	62.65358
779.423	57.51929
779.604	41.71245
779.785	50.67487
779.966	57.96141
780.147	71.72802
780.328	71.48754
780.509	102.13294
780.69	70.85294
780.871	46.79444
781.051	23.05766
781.232	57.76395
781.413	59.93285
781.594	46.04955
781.775	42.34362
781.956	43.28687
782.137	16.09395
782.317	39.7737
782.498	64.94613
782.679	62.17713
782.86	57.71152
783.04	36.05757
783.221	63.70987
783.402	96.4518
783.583	59.33132
783.763	73.78958
783.944	47.61743
784.124	24.79811
784.305	88.18323
784.486	71.00076
784.666	50.39181
784.847	21.74871
785.027	120.1537
785.208	35.72331
785.388	39.61532
785.569	37.64896
785.749	46.87211
785.93	43.29622
786.11	28.58865
786.291	52.86906
786.471	59.23047
786.652	66.57193
786.832	53.13432
787.012	63.46264
787.193	29.34405
787.373	52.64046
787.553	44.1904
787.734	57.00619
787.914	39.5145
788.094	68.10587
788.275	59.07383
788.455	41.99392
788.635	29.50644
788.815	58.76079
788.995	32.47075
789.176	27.91669
789.356	36.8476
789.536	46.81777
789.716	56.41601
789.896	38.91829
790.076	43.48967
790.256	58.01296
790.436	13.6717
790.616	35.84627
790.796	56.64137
790.976	42.31493
791.156	40.88469
791.336	65.35146
791.516	58.83328
791.696	48.39927
791.876	21.37756
792.056	58.02141
792.236	76.67848
792.416	70.82796
792.596	64.1424
792.776	59.87105
792.956	71.74072
793.135	88.54605
793.315	33.25447
793.495	77.4707
793.675	67.74182
793.854	72.71344
794.034	73.74772
794.214	27.40588
794.394	68.57424
794.573	74.05111
794.753	56.40888
794.933	40.43437
795.112	55.65225
795.292	72.52324
795.472	90.71927
795.651	30.34774
795.831	54.10078
796.01	45.05758
796.19	44.70917
796.369	44.90995
796.549	59.28222
796.728	47.02718
796.908	33.40722
797.087	31.75198
797.267	49.34026
797.446	32.50584
797.626	57.13529
797.805	59.83702
797.984	40.70618
798.164	64.51123
798.343	34.83599
798.522	56.75261
798.702	51.83931
798.881	30.41037
799.06	46.17393
799.239	16.92056
799.419	35.65873
799.598	84.41471
799.777	63.08129
799.956	72.35797
800.136	49.39751
800.315	38.93705
800.494	58.29895
800.673	70.60497
800.852	66.93496
801.031	77.58161
801.21	66.80012
801.389	38.67012
801.568	59.3805
801.747	88.80496
801.926	47.1212
802.105	85.2479
802.284	50.15704
802.463	82.33696
802.642	63.81271
802.821	60.31793
803	76.13123
803.179	73.28885
803.358	77.39056
803.537	41.25143
803.716	65.61488
803.895	39.6325
804.073	51.31625
804.252	41.90015
804.431	63.06479
804.61	60.01962
804.789	77.91651
804.967	43.83485
805.146	41.85345
805.325	102.46524
805.503	65.21434
805.682	30.62291
805.861	122.50538
806.039	83.47052
806.218	32.65305
806.397	61.2626
806.575	56.01604
806.754	59.40172
806.932	42.76295
807.111	93.50888
807.289	78.86878
807.468	59.41988
807.646	76.90733
807.825	56.232
808.003	66.75733
808.182	82.06657
808.36	53.3363
808.539	40.30304
808.717	90.76648
808.895	42.02709
809.074	59.37831
809.252	50.25411
809.43	80.33814
809.609	89.5143
809.787	93.69303
809.965	48.30988
810.144	57.48377
810.322	44.11952
810.5	74.33873
810.678	58.48497
810.856	102.54603
811.035	92.47349
811.213	83.8196
811.391	77.11036
811.569	62.84144
811.747	141.69463
811.925	86.36417
812.103	44.10905
812.281	50.86663
812.459	115.90131
812.637	96.55285
812.816	89.77076
812.994	107.09534
813.171	84.43667
813.349	89.20108
813.527	101.22063
813.705	96.63873
813.883	109.62408
814.061	91.55888
814.239	111.28853
814.417	123.63009
814.595	86.87435
814.773	66.16385
814.95	64.57827
815.128	75.46355
815.306	63.67619
815.484	57.59205
815.662	39.91042
815.839	42.36033
816.017	55.48879
816.195	89.36554
816.372	58.62858
816.55	93.82066
816.728	107.71904
816.905	59.11918
817.083	100.13368
817.261	65.77073
817.438	140.97726
817.616	116.47447
817.793	44.5451
817.971	82.54976
818.148	78.34643
818.326	106.34846
818.503	71.35032
818.681	98.41071
818.858	54.55848
819.036	65.00437
819.213	68.58149
819.391	48.59652
819.568	41.50168
819.745	37.3754
819.923	74.39018
820.1	48.91533
820.277	43.45166
820.455	49.32006
820.632	52.1841
820.809	56.29341
820.986	29.14586
821.164	21.1179
821.341	18.71781
821.518	32.01755
821.695	21.12482
821.872	18.09307
822.05	14.59885
822.227	9.69384
822.404	11.35692
822.581	14.44031
822.758	10.52971
822.935	11.22699
823.112	13.71842
823.289	9.56967
823.466	13.60094
823.643	12.34756
823.82	16.73543
823.997	13.59862
824.174	17.686
824.351	26.21591
824.528	24.55731
824.705	19.32978
824.882	24.51012
825.059	33.96694
825.236	21.59403
825.412	23.97434
825.589	30.88146
825.766	49.24625
825.943	26.99122
826.12	31.64952
826.296	19.42696
826.473	29.22936
826.65	27.955
826.827	38.09124
827.003	21.6672
827.18	25.36881
827.357	30.49665
827.533	23.52727
827.71	11.05639
827.887	20.15993
828.063	25.60043
828.24	20.94721
828.416	31.96274
828.593	25.19477
828.769	40.14012
828.946	42.05565
829.122	42.82783
829.299	46.3087
829.475	16.46754
829.652	38.32808
829.828	71.7475
830.005	46.65673
830.181	55.33489
830.357	40.66233
830.534	64.6005
830.71	56.47267
830.886	71.16463
831.063	60.13483
831.239	88.61317
831.415	31.09162
831.592	100.39025
831.768	51.95142
831.944	40.96428
832.12	98.88188
832.296	90.30254
832.473	74.58557
832.649	50.85392
832.825	68.61047
833.001	36.75932
833.177	56.24208
833.353	51.49674
833.529	26.43035
833.705	41.33142
833.881	28.55814
834.058	24.36436
834.234	28.73208
834.41	29.86763
834.586	18.24731
834.761	25.93304
834.937	30.47538
835.113	31.74714
835.289	25.93258
835.465	33.65427
835.641	28.52512
835.817	32.02086
835.993	68.80628
836.169	29.34179
836.344	48.95921
836.52	59.91414
836.696	71.90259
836.872	36.49048
837.048	149.73304
837.223	48.76156
837.399	120.30145
837.575	94.9456
837.75	76.69287
837.926	121.60796
838.102	191.74106
838.277	148.1699
838.453	213.24524
838.628	207.3454
838.804	60.98554
838.98	187.01272
839.155	90.48742
839.331	128.12336
839.506	95.39335
839.682	88.09031
839.857	104.64972
840.033	128.56352
840.208	51.17486
840.384	27.11869
840.559	53.55735
840.734	93.21951
840.91	131.38386
841.085	87.09313
841.26	88.57509
841.436	77.43825
841.611	63.31496
841.786	104.18913
841.962	144.35934
842.137	119.40545
842.312	50.38624
842.487	85.05502
842.663	79.80222
842.838	89.21787
843.013	284.80299
843.188	175.75459
843.363	130.61133
843.538	301.24619
843.714	351.28606
843.889	298.23283
844.064	310.71547
844.239	210.81191
844.414	430.09443
844.589	246.16566
844.764	371.67273
844.939	365.158
845.114	391.9943
845.289	404.66486
845.464	498.28225
845.639	378.59476
845.814	172.8413
845.989	309.75302
846.163	255.26847
846.338	303.7107
846.513	395.85356
846.688	253.30844
846.863	298.59679
847.038	231.01764
847.212	312.19837
847.387	348.77625
847.562	271.82023
847.737	440.87308
847.911	185.67828
848.086	172.04659
848.261	412.0805
848.435	258.43781
848.61	355.42833
848.785	213.78607
848.959	397.74592
849.134	447.77794
849.308	642.4459
849.483	311.96428
849.658	509.54586
849.832	238.66083
850.007	214.39952
850.181	676.09903
850.356	275.2723
850.53	759.41802
850.705	317.34869
850.879	150.9361
851.053	299.35035
851.228	299.81243
851.402	480.71126
851.577	458.15397
851.751	560.20369
851.925	335.74535
852.099	125.5273
852.274	218.11948
852.448	312.05658
852.622	461.98526
852.797	320.24481
852.971	323.65985
853.145	422.5328
853.319	739.77959
853.493	619.37549
853.668	461.19744
853.842	747.09033
854.016	499.42346
854.19	668.95102
854.364	351.32126
854.538	347.30241
854.712	737.93821
854.886	367.64445
855.06	278.40105
855.234	60.84352
855.408	608.62712
855.582	392.06668
855.756	624.622
855.93	512.83153
856.104	635.0737
856.278	570.99355
856.452	343.88233
856.626	415.92846
856.8	955.76519
856.973	369.86344
857.147	447.49416
857.321	473.07774
857.495	487.74665
857.669	329.54468
857.842	422.62348
858.016	534.98067
858.19	198.41188
858.364	742.9697
858.537	361.90346
858.711	477.08779
858.885	376.01668
859.058	248.7992
859.232	167.32203
859.405	129.65663
859.579	502.71162
859.753	500.24257
859.926	225.66136
860.1	219.11531
860.273	341.03491
860.447	454.09911
860.62	356.55032
860.794	596.19603
860.967	327.92191
861.141	449.93247
861.314	781.36322
861.487	448.499
861.661	456.44586
861.834	523.15169
862.008	653.13001
862.181	432.44342
862.354	504.37679
862.528	511.49423
862.701	313.2027
862.874	192.63929
863.047	324.94959
863.221	251.41985
863.394	141.54154
863.567	408.6597
863.74	136.13511
863.913	490.61521
864.087	512.78077
864.26	451.35085
864.433	355.71878
864.606	579.54398
864.779	361.52779
864.952	155.71919
865.125	378.76751
865.298	291.03993
865.471	351.00564
865.644	769.02784
865.817	482.50194
865.99	485.33432
866.163	442.5565
866.336	218.38004
866.509	307.68019
866.682	588.9106
866.855	721.76829
867.028	179.29431
867.2	407.40427
867.373	109.96871
867.546	337.04123
867.719	662.88349
867.892	448.12899
868.064	228.7467
868.237	297.77412
868.41	351.20602
868.583	186.02911
868.755	210.18882
868.928	451.97047
869.101	815.63509
869.273	544.34554
869.446	498.53111
869.619	572.75872
869.791	346.80538
869.964	473.60418
870.136	811.33149
870.309	317.80878
870.481	387.82296
870.654	203.8641
870.826	291.61279
870.999	217.9993
871.171	413.78934
871.344	232.50718
871.516	305.63738
871.689	233.89512
871.861	345.41421
872.033	292.05848
872.206	252.6231
872.378	296.15531
872.55	351.39004
872.723	209.06202
872.895	324.00577
873.067	430.64243
873.24	357.9258
873.412	295.42943
873.584	336.69122
873.756	317.16791
873.928	466.05434
874.101	330.81941
874.273	417.63485
874.445	127.47404
874.617	255.83539
874.789	299.05413
874.961	297.69053
875.133	356.17614
875.305	377.06845
875.477	267.2347
875.649	177.16781
875.821	176.37679
875.993	597.33456
876.165	315.3792
876.337	349.03677
876.509	300.05917
876.681	386.87229
876.853	337.15229
877.025	343.23101
877.197	219.3974
877.369	148.29635
877.541	327.00848
877.712	74.06723
877.884	172.85524
878.056	320.06137
878.228	178.12189
878.4	386.17688
878.571	168.84189
878.743	112.17396
878.915	273.07737
879.086	122.82518
879.258	162.69474
879.43	173.22674
879.601	133.72054
879.773	128.9457
879.945	21.8863
880.116	48.01691
880.288	24.3658
880.459	30.06153
880.631	19.57169
880.802	24.92744
880.974	21.815
881.145	13.08442
881.317	21.08686
881.488	14.19735
881.66	15.76907
881.831	14.25708
882.002	22.20152
882.174	14.52022
882.345	20.1765
882.517	7.88216
882.688	26.33648
882.859	19.67509
883.03	37.0005
883.202	34.20708
883.373	27.29941
883.544	24.98423
883.715	52.92219
883.887	40.11141
884.058	37.23776
884.229	55.81205
884.4	53.99943
884.571	68.94352
884.742	51.24492
884.914	60.51878
885.085	91.05962
885.256	132.93561
885.427	118.79967
885.598	144.40506
885.769	141.70048
885.94	140.24768
886.111	77.65191
886.282	176.04744
886.453	154.77777
886.624	106.90035
886.795	192.25899
886.966	153.75829
887.136	182.86325
887.307	155.11741
887.478	295.42243
887.649	254.41951
887.82	247.87334
887.991	198.77269
888.161	321.95625
888.332	311.46838
888.503	138.92757
888.674	366.62319
888.844	513.90139
889.015	333.4682
889.186	180.08839
889.356	491.37677
889.527	209.4606
889.698	651.81435
889.868	230.54823
890.039	366.50469
890.209	281.60884
890.38	391.56043
890.551	353.42416
890.721	378.73828
890.892	464.88341
891.062	400.76582
891.233	509.11042
891.403	430.06129
891.574	294.0341
891.744	240.75485
891.914	315.21644
892.085	339.6647
892.255	76.98173
892.425	452.9141
892.596	298.60271
892.766	379.24812
892.936	439.3818
893.107	377.3033
893.277	149.77468
893.447	203.55178
893.618	96.39595
893.788	185.35427
893.958	126.06356
894.128	89.78666
894.298	117.90412
894.468	142.41928
894.639	48.3683
894.809	28.75123
894.979	65.25678
895.149	79.39158
895.319	57.094
895.489	99.9589
895.659	136.75424
895.829	75.51404
895.999	77.65588
896.169	72.40719
896.339	87.01698
896.509	185.28322
896.679	186.91906
896.849	212.1353
897.019	270.52166
897.189	243.31425
897.358	204.80553
897.528	339.77945
897.698	211.95553
897.868	300.69085
898.038	611.23921
898.208	599.86793
898.377	153.02186
898.547	999.37826
898.717	1392.2716
898.886	388.50499
899.056	578.42123
899.226	1512.31569
899.395	720.39882
899.565	1187.40373
899.735	820.09712
899.904	878.22599
900.074	946.46116
900.244	313.39284
900.413	1226.03845
900.583	378.60749
900.752	1403.31992
900.922	1015.68519
901.091	172.67813
901.261	1720.14124
901.43	510.70261
901.599	2284.91476
901.769	1444.72529
901.938	1036.80089
902.108	1590.56136
902.277	779.15746
902.446	394.5475
902.616	356.47968
902.785	498.35454
902.954	685.05381
903.124	506.32429
903.293	274.07075
903.462	123.6633
903.631	200.82853
903.801	142.73257
903.97	52.76156
904.139	106.97357
904.308	79.38898
904.477	68.02485
904.646	35.37399
904.816	59.12417
904.985	89.71473
905.154	138.07748
