Data from WindowProjectSample3_Transmission__20__00020.txt Node

Date: Sun May 04 10:06:03 EDT 2025
User: jessi
Spectrometer: SR400872
Trigger mode: 0
Integration Time (sec): 5.000070E-1
Scans to average: 10
Electric dark correction enabled: true
Nonlinearity correction enabled: true
Boxcar width: 0
XAxis mode: Wavelengths
Number of Pixels in Spectrum: 3648
>>>>>Begin Spectral Data<<<<<
184.909	0.16733
185.132	4.85823
185.355	2.5907
185.578	0.89643
185.801	-46.83548
186.024	4.41297
186.247	10.47006
186.47	7.66912
186.693	-73.83667
186.916	-10.06129
187.139	0.49162
187.362	-3.67726
187.585	0.00468
187.808	0.21137
188.031	20.82444
188.254	-3.45961
188.476	-6.37238
188.699	-1.74156
188.922	-19.10895
189.145	-0.17276
189.368	7.5887
189.591	6.6301
189.813	5.85719
190.036	-3.10618
190.259	0.65589
190.482	2.1985
190.705	-0.40009
190.927	-5.57362
191.15	-2.07095
191.373	5.37366
191.595	-1.99423
191.818	-0.2419
192.041	-25.72322
192.263	7.8872
192.486	-8.27323
192.709	2.14366
192.931	2.64979
193.154	-0.54639
193.377	2.58657
193.599	-2.60409
193.822	-5.90843
194.044	4.18991
194.267	-14.68616
194.489	120.98286
194.712	2.34358
194.934	2.12465
195.157	-1.33517
195.379	4.92605
195.602	7.46548
195.824	-3.07953
196.047	14.27783
196.269	1.88207
196.492	1.4662
196.714	0.50197
196.936	2.35957
197.159	-1.36411
197.381	1.43063
197.604	0.97963
197.826	-4.45106
198.048	-8.43113
198.271	-2.87769
198.493	4.79275
198.715	-4.50825
198.938	3.5306
199.16	-4.58127
199.382	3.20515
199.604	3.21586
199.827	6.85373
200.049	-1.41982
200.271	-0.26247
200.493	0.37914
200.715	0.67612
200.938	3.90605
201.16	3.90843
201.382	-1.07002
201.604	3.61934
201.826	2.57528
202.048	-2.26138
202.27	10.53212
202.492	6.55619
202.715	4.42651
202.937	0.49319
203.159	1.72914
203.381	8.15618
203.603	3.2676
203.825	0.40582
204.047	-3.77331
204.269	0.92272
204.491	-3.63985
204.713	-4.92257
204.935	-0.02484
205.156	3.11682
205.378	6.57501
205.6	7.16937
205.822	0.45689
206.044	6.07926
206.266	-6.7008
206.488	-4.18827
206.71	3.69135
206.932	4.23715
207.153	1.4077
207.375	4.36589
207.597	5.08904
207.819	0.92671
208.041	2.83983
208.262	-22.15729
208.484	5.84656
208.706	4.07963
208.927	2.70056
209.149	0.64673
209.371	-0.60267
209.593	0.49206
209.814	10.20624
210.036	12.37605
210.258	8.41568
210.479	0.16268
210.701	7.47787
210.922	1.04933
211.144	-10.46144
211.366	1.44789
211.587	10.75664
211.809	3.30494
212.03	2.64971
212.252	6.678
212.473	6.06922
212.695	3.13905
212.916	-2.63178
213.138	1.75055
213.359	1.97457
213.581	0.37348
213.802	9.09453
214.024	-0.61852
214.245	2.6989
214.466	23.46311
214.688	2.88253
214.909	-7.32514
215.131	4.53964
215.352	7.21019
215.573	0.41333
215.795	0.38743
216.016	-4.18323
216.237	1.20562
216.459	5.36723
216.68	-5.97765
216.901	1.59417
217.122	-11.43417
217.344	-1.98426
217.565	1.0568
217.786	2.90707
218.007	-3.15918
218.228	12.95009
218.45	-0.18591
218.671	-1.36804
218.892	2.80843
219.113	-4.30417
219.334	-49.24192
219.555	-2.28247
219.776	0.13475
219.997	-3.30756
220.219	4.06158
220.44	7.77034
220.661	11.24896
220.882	-0.73063
221.103	8.20172
221.324	-2.52937
221.545	1.09863
221.766	-1.28861
221.987	-8.77545
222.208	-8.82309
222.429	1.57627
222.65	4.97675
222.87	-5.52072
223.091	7.47107
223.312	3.48455
223.533	1.56399
223.754	-0.90882
223.975	4.01668
224.196	11.9847
224.417	-6.1192
224.637	-7.84627
224.858	48.14427
225.079	4.65729
225.3	-0.29804
225.521	0.24436
225.741	-1.7743
225.962	-6.90919
226.183	-31.77175
226.404	6.32157
226.624	1.3888
226.845	2.99998
227.066	6.17986
227.286	0.32514
227.507	-14.70977
227.728	-3.21109
227.948	0.79782
228.169	17.52221
228.389	6.04488
228.61	10.16428
228.831	-0.1561
229.051	-1.08309
229.272	1.73275
229.492	-1.23469
229.713	-0.37161
229.933	-3.92298
230.154	0.65818
230.374	-0.7262
230.595	-3.803
230.815	-4.42611
231.036	-2.0763
231.256	-3.01658
231.477	30.41351
231.697	-0.85157
231.917	-4.87059
232.138	16.58448
232.358	3.82854
232.579	11.46169
232.799	3.9429
233.019	-66.01436
233.24	16.36624
233.46	4.95263
233.68	-29.35223
233.901	1.84993
234.121	-1.64119
234.341	1.91149
234.561	-4.68248
234.782	-4.93602
235.002	-13.14225
235.222	0.6311
235.442	1.80379
235.662	3.39006
235.883	-15.06338
236.103	5.33347
236.323	9.39633
236.543	3.55533
236.763	3.00106
236.983	-0.525
237.203	0.16834
237.423	-2.71546
237.643	-38.26034
237.864	14.33131
238.084	4.49922
238.304	5.20566
238.524	-1.73994
238.744	-4.13572
238.964	2.93279
239.184	3.08794
239.404	1.86914
239.624	2.70362
239.843	-5.27187
240.063	-4.74845
240.283	3.68443
240.503	-1.18384
240.723	-1.54196
240.943	0.48993
241.163	-0.14957
241.383	7.23952
241.603	-0.04651
241.822	0.29912
242.042	-1.13092
242.262	0.2438
242.482	0.29958
242.702	-0.05829
242.921	-0.82879
243.141	0.20756
243.361	0.30563
243.581	-0.47937
243.8	0.65818
244.02	0.00465
244.24	0.52969
244.459	0.0563
244.679	0.8628
244.899	-0.18496
245.118	-0.44922
245.338	-1.91864
245.558	-0.65334
245.777	0.24954
245.997	0.07301
246.216	-0.52066
246.436	-0.17456
246.655	-0.09556
246.875	0.31453
247.094	0.02815
247.314	-0.00991
247.533	0.28312
247.753	-0.24059
247.972	-0.28389
248.192	-0.06855
248.411	-0.21723
248.631	-0.38462
248.85	0.08232
249.07	-0.26295
249.289	0.01181
249.508	-0.05719
249.728	0.10613
249.947	0.20652
250.166	0.03744
250.386	0.11323
250.605	-0.97636
250.824	-0.54129
251.044	-1.66095
251.263	0.14753
251.482	-0.75688
251.701	-0.09
251.921	-0.58527
252.14	-0.45345
252.359	-0.32727
252.578	-0.30071
252.798	-0.52526
253.017	0.47727
253.236	0.00673
253.455	0.23708
253.674	-0.81899
253.893	0.51753
254.112	0.4345
254.331	0.23667
254.551	1.27006
254.77	-0.23373
254.989	-0.17651
255.208	1.33378
255.427	0.42376
255.646	-0.98622
255.865	0.41494
256.084	0.67596
256.303	-0.78979
256.522	-1.47978
256.741	0.99404
256.96	0.44807
257.179	0.72362
257.397	-0.92207
257.616	-0.63269
257.835	-0.43193
258.054	-0.42921
258.273	-0.24598
258.492	0.92807
258.711	0.15131
258.93	-0.17655
259.148	0.05881
259.367	-0.01884
259.586	-0.0082
259.805	0.0456
260.023	0.04483
260.242	-0.04995
260.461	-0.07643
260.68	0.02151
260.898	-0.13638
261.117	-0.02434
261.336	0.15569
261.554	0.00826
261.773	0.01743
261.992	-0.20355
262.21	-0.10016
262.429	-0.03954
262.648	0.11557
262.866	0.11542
263.085	-0.22527
263.303	-0.08052
263.522	0.43537
263.74	0.01722
263.959	0.29667
264.178	0.34028
264.396	0.33663
264.615	-0.30631
264.833	1.03807
265.051	0.36485
265.27	-0.88591
265.488	0.42619
265.707	0.01477
265.925	-0.48059
266.144	-0.13772
266.362	-0.05784
266.58	0.17908
266.799	-0.33373
267.017	-0.12429
267.235	0.08904
267.454	-0.06487
267.672	-0.42872
267.89	-0.14802
268.109	0.51854
268.327	0.05016
268.545	0.24022
268.763	-0.17732
268.982	-0.01746
269.2	0.30507
269.418	0.0332
269.636	-0.10871
269.854	0.24285
270.073	0.23399
270.291	0.01573
270.509	-0.24769
270.727	-0.08354
270.945	0.11098
271.163	0.11431
271.381	0.02752
271.599	0.02033
271.817	-0.22843
272.036	0.06803
272.254	-0.00326
272.472	-0.02827
272.69	-0.13813
272.908	-0.12161
273.126	-0.06001
273.344	-0.16183
273.562	-0.24614
273.779	0.14751
273.997	-0.14557
274.215	0.16411
274.433	0.01757
274.651	0.21422
274.869	0.12697
275.087	-0.02406
275.305	-0.24962
275.523	-0.36769
275.74	0.16149
275.958	0.06834
276.176	-0.326
276.394	-0.11878
276.612	-0.51949
276.829	0.10349
277.047	-0.30016
277.265	-0.17999
277.483	-0.02716
277.7	0.17473
277.918	-0.18565
278.136	0.15097
278.353	-0.17047
278.571	-0.0711
278.789	-0.11059
279.006	0.05033
279.224	-0.07544
279.442	0.01555
279.659	-0.18625
279.877	-0.10279
280.094	0.14465
280.312	-0.23703
280.529	-0.58659
280.747	0.04604
280.964	-0.35165
281.182	-0.11092
281.399	-0.42211
281.617	-0.01091
281.834	0.03465
282.052	-0.17334
282.269	-0.1879
282.487	-0.1634
282.704	-0.21952
282.921	0.09418
283.139	0.09817
283.356	-0.24957
283.574	0.14152
283.791	0.01904
284.008	0.16915
284.226	0.30908
284.443	0.19643
284.66	-0.0093
284.877	0.33462
285.095	-0.19303
285.312	-0.03259
285.529	-0.03794
285.746	-0.04238
285.964	-0.02133
286.181	0.30571
286.398	-0.1372
286.615	0.12599
286.832	-0.09625
287.05	0.11859
287.267	-0.16037
287.484	0.04175
287.701	0.07726
287.918	0.00167
288.135	0.13794
288.352	-0.01918
288.569	-0.05071
288.786	0.11438
289.003	-0.01814
289.22	0.0154
289.437	-0.10926
289.654	-0.01995
289.871	0.06443
290.088	-0.11059
290.305	0.23932
290.522	0.1111
290.739	0.07568
290.956	0.22448
291.173	-0.05428
291.39	-0.00254
291.607	-0.04187
291.824	-0.38503
292.04	0.16126
292.257	0.12744
292.474	-0.03954
292.691	0.00906
292.908	-0.01469
293.125	-0.06763
293.341	0.02908
293.558	-0.08802
293.775	-0.12459
293.992	-0.08932
294.208	-0.1224
294.425	0.18921
294.642	-0.00722
294.858	-0.0663
295.075	-0.10521
295.292	0.00383
295.508	0.01616
295.725	-0.06487
295.942	-0.05586
296.158	-0.01121
296.375	-0.07754
296.591	0.03188
296.808	-0.03703
297.024	0.01708
297.241	-0.06024
297.458	0.00347
297.674	0.01502
297.891	-0.00671
298.107	0.09833
298.323	-0.03992
298.54	0.10222
298.756	0.03774
298.973	0.14493
299.189	0.11382
299.406	0.15648
299.622	0.05265
299.838	0.15851
300.055	0.09814
300.271	-0.04309
300.487	0.17251
300.704	0.29181
300.92	0.42857
301.136	0.29691
301.353	0.19885
301.569	0.27466
301.785	0.1231
302.001	-0.00511
302.218	0.23545
302.434	0.45924
302.65	0.24178
302.866	0.06921
303.083	0.33841
303.299	0.3828
303.515	0.17888
303.731	0.24996
303.947	0.30996
304.163	0.30423
304.379	0.27211
304.595	0.31659
304.812	0.45185
305.028	0.49014
305.244	0.26591
305.46	0.23512
305.676	0.49452
305.892	0.38092
306.108	0.49668
306.324	0.40535
306.54	0.33516
306.756	0.20783
306.972	0.29179
307.187	0.36149
307.403	0.15575
307.619	0.46606
307.835	0.41516
308.051	0.41429
308.267	0.50801
308.483	0.42368
308.699	0.62726
308.914	0.39985
309.13	0.57352
309.346	0.39212
309.562	0.63337
309.778	0.56563
309.993	0.60748
310.209	0.68059
310.425	0.61892
310.641	0.51821
310.856	0.66192
311.072	0.6604
311.288	0.5828
311.503	0.59474
311.719	0.60131
311.935	0.5236
312.15	0.75843
312.366	0.77233
312.581	0.64876
312.797	0.66797
313.013	0.68297
313.228	0.72274
313.444	0.59068
313.659	0.51955
313.875	0.42494
314.09	0.54878
314.306	0.82674
314.521	0.46818
314.737	0.67889
314.952	0.59872
315.168	0.61732
315.383	0.46623
315.599	0.66164
315.814	0.6119
316.029	0.52719
316.245	0.82433
316.46	0.5052
316.675	0.67175
316.891	0.80623
317.106	0.71757
317.321	0.66376
317.537	0.67231
317.752	0.74696
317.967	0.60907
318.183	0.72976
318.398	0.68349
318.613	0.40385
318.828	0.65043
319.043	0.47685
319.259	0.57803
319.474	0.70627
319.689	0.59015
319.904	0.76466
320.119	0.86404
320.334	0.55321
320.549	0.69191
320.765	0.56387
320.98	0.68396
321.195	0.54126
321.41	0.73196
321.625	0.60311
321.84	0.64637
322.055	0.5447
322.27	0.76187
322.485	0.70069
322.7	0.60158
322.915	0.83324
323.13	0.6645
323.345	0.75565
323.56	1.00145
323.775	1.12664
323.989	0.74458
324.204	0.94375
324.419	1.03566
324.634	0.90133
324.849	0.75563
325.064	1.07904
325.279	1.0171
325.493	0.7991
325.708	0.79965
325.923	0.7211
326.138	0.90026
326.352	0.76108
326.567	0.64486
326.782	0.6761
326.997	0.95243
327.211	0.93378
327.426	0.94078
327.641	0.83316
327.855	0.94393
328.07	1.00951
328.285	1.00102
328.499	1.0432
328.714	0.95279
328.928	1.03036
329.143	0.77806
329.358	1.02957
329.572	1.13058
329.787	0.90416
330.001	1.17964
330.216	1.20064
330.43	1.20159
330.645	0.79668
330.859	0.91736
331.074	0.81625
331.288	0.88178
331.503	1.30404
331.717	0.94502
331.931	0.91979
332.146	0.97131
332.36	1.04664
332.575	0.98339
332.789	0.9218
333.003	1.19184
333.218	0.94899
333.432	1.01544
333.646	1.21277
333.86	0.97481
334.075	1.08398
334.289	1.07972
334.503	0.76651
334.717	0.76169
334.932	1.15479
335.146	0.67461
335.36	0.86491
335.574	1.08292
335.788	0.99719
336.003	1.11398
336.217	1.07011
336.431	1.35283
336.645	1.0862
336.859	1.23504
337.073	1.285
337.287	1.07936
337.501	1.14889
337.715	1.33142
337.929	1.20679
338.143	1.23412
338.357	1.15299
338.571	1.46805
338.785	1.36122
338.999	1.38676
339.213	1.47303
339.427	1.15783
339.641	1.30558
339.855	1.02052
340.069	1.21682
340.283	1.08783
340.497	1.19416
340.711	1.44204
340.924	1.40703
341.138	1.15999
341.352	1.23845
341.566	1.30177
341.78	1.16378
341.993	1.33689
342.207	1.32924
342.421	1.33897
342.635	1.37068
342.848	1.72851
343.062	1.22406
343.276	1.41475
343.49	1.60117
343.703	1.25922
343.917	1.37288
344.131	1.66031
344.344	1.61405
344.558	1.35899
344.771	1.39665
344.985	1.39637
345.199	1.72792
345.412	1.47383
345.626	1.55644
345.839	1.54385
346.053	1.53003
346.266	1.48366
346.48	1.5317
346.693	1.61928
346.907	1.56157
347.12	1.43598
347.334	1.49221
347.547	1.44943
347.76	1.57855
347.974	1.39409
348.187	1.42851
348.401	1.44217
348.614	1.37387
348.827	1.42893
349.041	1.27508
349.254	1.41045
349.467	1.30496
349.681	1.66062
349.894	1.40149
350.107	1.55898
350.32	1.62992
350.534	1.67061
350.747	1.54867
350.96	1.38951
351.173	1.58244
351.386	1.55239
351.6	1.72032
351.813	1.46774
352.026	1.69147
352.239	1.70693
352.452	1.60922
352.665	1.44308
352.878	1.67039
353.092	1.5158
353.305	1.74147
353.518	1.63857
353.731	1.71328
353.944	1.69229
354.157	1.72769
354.37	1.64955
354.583	1.64938
354.796	1.82671
355.009	1.5826
355.222	1.60379
355.435	1.69499
355.647	1.74342
355.86	1.7822
356.073	1.73535
356.286	1.77849
356.499	1.87168
356.712	1.85251
356.925	1.66503
357.138	1.92258
357.35	1.87305
357.563	1.56873
357.776	1.91616
357.989	2.02694
358.201	1.8992
358.414	1.9337
358.627	1.83482
358.84	1.82497
359.052	1.91915
359.265	1.93043
359.478	1.96957
359.69	1.84587
359.903	1.9785
360.116	2.06359
360.328	2.00582
360.541	1.95682
360.753	2.15912
360.966	2.05961
361.179	2.09698
361.391	2.03988
361.604	2.12746
361.816	2.14505
362.029	2.17437
362.241	2.11488
362.454	2.1847
362.666	2.06671
362.879	2.14173
363.091	2.08996
363.304	2.13432
363.516	2.01701
363.728	1.9146
363.941	2.01033
364.153	2.13471
364.366	1.90871
364.578	1.88715
364.79	1.74058
365.003	2.14218
365.215	2.12146
365.427	2.16948
365.639	2.05157
365.852	1.8892
366.064	1.77822
366.276	2.14965
366.488	1.90738
366.701	1.96201
366.913	1.96274
367.125	1.89623
367.337	1.9634
367.549	2.06236
367.762	2.11151
367.974	1.7618
368.186	1.99371
368.398	2.1751
368.61	1.998
368.822	1.95223
369.034	1.88055
369.246	1.92909
369.458	2.07857
369.67	1.95558
369.882	1.89288
370.094	1.97421
370.306	1.99859
370.518	2.19959
370.73	2.09993
370.942	1.86826
371.154	2.13534
371.366	2.04673
371.578	2.13895
371.79	2.02676
372.002	1.96863
372.214	2.28486
372.425	1.94983
372.637	1.97715
372.849	1.93463
373.061	1.94186
373.273	2.03254
373.484	1.98086
373.696	1.8187
373.908	1.98679
374.12	1.87558
374.331	2.16426
374.543	1.97932
374.755	1.89203
374.967	1.8839
375.178	2.07622
375.39	1.92677
375.602	2.02808
375.813	1.89058
376.025	2.08425
376.236	2.06151
376.448	2.29188
376.66	2.20171
376.871	2.37094
377.083	2.12543
377.294	2.19336
377.506	2.15493
377.717	2.30373
377.929	2.12365
378.14	2.17893
378.352	2.15046
378.563	2.19116
378.775	2.19059
378.986	2.13719
379.197	2.22763
379.409	2.09419
379.62	2.07416
379.832	1.88755
380.043	2.10851
380.254	2.25714
380.466	2.07258
380.677	2.07602
380.888	2.15072
381.1	2.1226
381.311	2.1936
381.522	2.27456
381.733	2.09806
381.945	2.06802
382.156	2.02879
382.367	2.11789
382.578	2.25017
382.789	2.3251
383.001	1.89117
383.212	2.33074
383.423	2.3277
383.634	2.21001
383.845	2.27331
384.056	2.16145
384.267	2.26224
384.478	2.13308
384.69	2.21806
384.901	2.29253
385.112	2.23195
385.323	2.24823
385.534	2.20282
385.745	2.25552
385.956	2.26393
386.167	2.29135
386.378	2.39098
386.588	2.39315
386.799	2.19712
387.01	2.26965
387.221	2.23779
387.432	2.35521
387.643	2.4057
387.854	2.34277
388.065	2.33263
388.275	2.35549
388.486	2.0609
388.697	2.29838
388.908	2.14534
389.119	2.27742
389.329	2.32542
389.54	2.45528
389.751	2.24804
389.962	2.36443
390.172	2.26448
390.383	2.30139
390.594	2.30181
390.804	2.2385
391.015	2.21755
391.226	2.50092
391.436	2.38079
391.647	2.34322
391.858	2.44589
392.068	2.34266
392.279	2.45753
392.489	2.33164
392.7	2.37247
392.91	2.55476
393.121	2.4376
393.331	2.54204
393.542	2.59205
393.752	2.45246
393.963	2.51812
394.173	2.57651
394.384	2.63804
394.594	2.48696
394.804	2.48411
395.015	2.58025
395.225	2.21132
395.436	2.45655
395.646	2.49475
395.856	2.5068
396.067	2.32095
396.277	2.42046
396.487	2.45996
396.697	2.56188
396.908	2.33315
397.118	2.49468
397.328	2.43365
397.538	2.42895
397.749	2.57428
397.959	2.40134
398.169	2.35955
398.379	2.47301
398.589	2.28985
398.8	2.57837
399.01	2.59668
399.22	2.55247
399.43	2.51749
399.64	2.61195
399.85	2.55707
400.06	2.35606
400.27	2.28173
400.48	2.32763
400.69	2.32485
400.9	2.54898
401.11	2.37735
401.32	2.32147
401.53	2.39828
401.74	2.4111
401.95	2.42029
402.16	2.6714
402.37	2.4179
402.58	2.50699
402.79	2.41488
403	2.60143
403.209	2.6171
403.419	2.51684
403.629	2.49488
403.839	2.61992
404.049	2.61118
404.258	2.78537
404.468	2.64944
404.678	2.84415
404.888	2.67673
405.097	2.93566
405.307	2.69008
405.517	2.73354
405.727	2.65209
405.936	2.6757
406.146	2.64637
406.356	2.71867
406.565	2.70932
406.775	2.73137
406.984	2.66939
407.194	2.66726
407.404	2.46487
407.613	2.78258
407.823	2.55118
408.032	2.83127
408.242	2.59353
408.451	2.58095
408.661	2.67816
408.87	2.67586
409.08	2.48406
409.289	2.6978
409.499	2.82571
409.708	2.72639
409.918	2.6083
410.127	2.79722
410.336	2.82591
410.546	2.80085
410.755	2.57182
410.964	2.69803
411.174	2.59605
411.383	2.78844
411.592	2.59515
411.802	2.81305
412.011	2.51811
412.22	2.68982
412.429	2.72995
412.639	2.54267
412.848	2.36943
413.057	2.87544
413.266	2.64787
413.475	2.75087
413.685	2.657
413.894	2.7078
414.103	2.74736
414.312	2.76928
414.521	2.73607
414.73	3.05283
414.939	2.60193
415.148	2.85216
415.357	2.67569
415.566	2.84894
415.776	2.80283
415.985	2.86609
416.194	2.99452
416.403	2.99069
416.611	2.87356
416.82	2.98688
417.029	2.98418
417.238	2.95025
417.447	3.10483
417.656	3.08038
417.865	3.07037
418.074	3.00996
418.283	3.20486
418.492	3.30354
418.7	3.23736
418.909	3.60821
419.118	3.50307
419.327	3.70551
419.536	3.61226
419.744	3.7871
419.953	4.00878
420.162	4.10479
420.371	4.19273
420.579	4.40387
420.788	4.57333
420.997	4.5673
421.205	4.87338
421.414	4.53466
421.623	4.74319
421.831	4.70139
422.04	4.66274
422.249	4.51637
422.457	4.22574
422.666	4.31039
422.874	4.31885
423.083	4.41384
423.291	4.26404
423.5	4.47058
423.708	4.60424
423.917	4.72882
424.125	4.65957
424.334	4.79608
424.542	4.87809
424.751	4.70183
424.959	4.67699
425.167	4.46515
425.376	4.35488
425.584	4.26849
425.793	4.00653
426.001	3.80828
426.209	3.59275
426.418	3.42889
426.626	3.31458
426.834	3.10327
427.042	3.15942
427.251	3.2326
427.459	3.25807
427.667	3.09521
427.875	3.11796
428.084	3.21298
428.292	3.19629
428.5	3.267
428.708	3.27562
428.916	3.14979
429.124	3.1965
429.333	3.22798
429.541	3.25835
429.749	3.17384
429.957	3.19887
430.165	3.20136
430.373	3.14117
430.581	3.4045
430.789	3.33954
430.997	3.11014
431.205	3.28552
431.413	3.40376
431.621	3.30074
431.829	3.35808
432.037	3.3242
432.245	3.30037
432.453	3.27288
432.661	3.38191
432.869	3.45078
433.076	3.30514
433.284	3.48103
433.492	3.4283
433.7	3.51886
433.908	3.38499
434.116	3.47397
434.323	3.42341
434.531	3.35974
434.739	3.34225
434.947	3.54236
435.154	3.33459
435.362	3.2871
435.57	3.3953
435.778	3.54246
435.985	3.38676
436.193	3.40945
436.401	3.51832
436.608	3.35207
436.816	3.40598
437.023	3.48915
437.231	3.46644
437.439	3.37139
437.646	3.43627
437.854	3.4082
438.061	3.50121
438.269	3.31852
438.476	3.56828
438.684	3.53384
438.891	3.54037
439.099	3.56642
439.306	3.66157
439.514	3.6012
439.721	3.94788
439.929	4.04796
440.136	4.24105
440.343	4.21341
440.551	4.38842
440.758	4.34972
440.965	4.26516
441.173	4.26213
441.38	4.1216
441.587	4.04074
441.795	3.90567
442.002	3.65365
442.209	3.7118
442.416	3.52787
442.624	3.72943
442.831	3.34681
443.038	3.47299
443.245	3.45747
443.452	3.60616
443.66	3.57674
443.867	3.5865
444.074	3.45527
444.281	3.59557
444.488	3.65755
444.695	3.63956
444.902	3.82581
445.109	4.19151
445.316	4.17719
445.523	4.45262
445.73	4.82055
445.937	4.80461
446.144	5.0714
446.351	5.20465
446.558	4.95639
446.765	5.33738
446.972	5.07507
447.179	5.15153
447.386	4.86387
447.593	4.61565
447.8	4.69266
448.007	4.26172
448.214	4.04527
448.42	3.8673
448.627	3.68699
448.834	3.65976
449.041	3.71567
449.248	3.59777
449.454	3.55272
449.661	3.54876
449.868	3.52988
450.075	3.63854
450.281	3.60978
450.488	3.65057
450.695	3.4545
450.901	3.6428
451.108	3.54925
451.315	3.63737
451.521	3.45159
451.728	3.68786
451.935	3.67367
452.141	3.63794
452.348	3.58133
452.554	3.64617
452.761	3.76653
452.967	3.84082
453.174	3.54874
453.38	3.67262
453.587	3.5722
453.793	3.69864
454	3.63892
454.206	3.78663
454.413	3.69786
454.619	3.73656
454.825	3.68318
455.032	3.78329
455.238	3.62874
455.445	3.68725
455.651	3.631
455.857	3.58295
456.064	3.74656
456.27	3.57467
456.476	3.62778
456.682	3.72503
456.889	3.73433
457.095	3.75849
457.301	3.66223
457.507	3.62812
457.714	3.67884
457.92	3.8591
458.126	3.85132
458.332	3.72478
458.538	3.76509
458.744	3.94709
458.951	4.34278
459.157	4.69158
459.363	4.93862
459.569	5.03423
459.775	4.81103
459.981	5.18262
460.187	5.14817
460.393	5.01883
460.599	4.88322
460.805	5.00692
461.011	4.28851
461.217	4.00301
461.423	3.82093
461.629	3.75849
461.835	4.04335
462.041	3.70864
462.247	3.79818
462.453	3.87556
462.658	3.81299
462.864	3.86482
463.07	3.90383
463.276	3.73294
463.482	3.9314
463.688	4.07369
463.893	3.92094
464.099	3.8492
464.305	3.8467
464.511	3.86547
464.716	3.8608
464.922	3.98536
465.128	3.84393
465.333	3.89435
465.539	3.78639
465.745	3.96002
465.95	3.68505
466.156	4.04413
466.362	3.79403
466.567	3.87097
466.773	3.82082
466.978	3.94416
467.184	3.81802
467.389	3.92063
467.595	4.00535
467.8	3.88171
468.006	3.93982
468.211	3.72047
468.417	3.93049
468.622	3.93312
468.828	3.87319
469.033	3.91301
469.239	3.97795
469.444	3.92991
469.649	4.07371
469.855	3.8942
470.06	4.0977
470.266	3.87265
470.471	3.91223
470.676	3.95845
470.881	3.86095
471.087	4.17933
471.292	3.92459
471.497	3.91169
471.703	4.00374
471.908	4.10982
472.113	3.8671
472.318	4.10163
472.523	3.96334
472.729	3.99249
472.934	3.9088
473.139	3.95052
473.344	3.97418
473.549	4.10162
473.754	4.15007
473.959	3.98546
474.164	3.8409
474.369	4.06786
474.575	3.97013
474.78	3.85219
474.985	3.94635
475.19	3.97826
475.395	4.07788
475.6	3.98319
475.804	3.99119
476.009	4.18179
476.214	4.0124
476.419	4.20131
476.624	3.97173
476.829	4.10484
477.034	4.09076
477.239	4.19634
477.444	4.14557
477.648	4.2089
477.853	4.17918
478.058	4.20515
478.263	4.17149
478.468	4.20356
478.672	4.1714
478.877	4.24056
479.082	4.31478
479.287	4.09398
479.491	4.16433
479.696	4.13358
479.901	4.06766
480.105	4.12499
480.31	4.1601
480.515	4.34024
480.719	4.27095
480.924	4.12019
481.128	4.31282
481.333	4.37594
481.538	4.4531
481.742	4.83382
481.947	5.35582
482.151	5.8581
482.356	6.43036
482.56	7.74239
482.765	9.11017
482.969	10.81777
483.174	12.39202
483.378	14.22335
483.582	15.16902
483.787	15.87924
483.991	16.34609
484.196	16.04804
484.4	15.63355
484.604	15.1121
484.809	13.51668
485.013	12.3068
485.217	10.50533
485.422	9.17825
485.626	8.31082
485.83	8.07147
486.034	8.01981
486.239	8.20459
486.443	8.7131
486.647	9.31564
486.851	9.89148
487.055	10.51421
487.26	10.92335
487.464	11.49037
487.668	11.35645
487.872	11.50062
488.076	11.30094
488.28	10.79988
488.484	9.87891
488.688	9.23034
488.892	8.71726
489.096	7.78404
489.3	7.24181
489.504	6.60799
489.708	6.22817
489.912	6.12021
490.116	6.06102
490.32	6.29916
490.524	6.89601
490.728	7.5905
490.932	8.19547
491.136	9.06289
491.34	9.15153
491.544	9.52611
491.748	9.35313
491.951	8.99088
492.155	8.96273
492.359	8.4577
492.563	7.67495
492.767	6.99507
492.97	6.08605
493.174	5.34817
493.378	4.75941
493.582	4.26741
493.785	4.11781
493.989	4.05197
494.193	4.36116
494.396	4.39858
494.6	4.30134
494.804	4.37474
495.007	4.38872
495.211	4.28951
495.414	4.28679
495.618	4.40253
495.822	4.41682
496.025	4.30848
496.229	4.31884
496.432	4.4303
496.636	4.54567
496.839	4.60757
497.043	4.58306
497.246	4.54794
497.45	4.6375
497.653	4.50775
497.856	4.37773
498.06	4.52731
498.263	4.48942
498.467	4.60828
498.67	4.56553
498.873	4.42909
499.077	4.47941
499.28	4.37933
499.483	4.65533
499.686	4.27407
499.89	4.5023
500.093	4.51751
500.296	4.45097
500.499	4.49308
500.703	4.49021
500.906	4.45641
501.109	4.42298
501.312	4.47529
501.515	4.42361
501.719	4.44328
501.922	4.36527
502.125	4.50897
502.328	4.27609
502.531	4.48962
502.734	4.53992
502.937	4.62309
503.14	4.55691
503.343	4.59654
503.546	4.61522
503.749	4.48084
503.952	4.39539
504.155	4.52721
504.358	4.46595
504.561	4.63714
504.764	4.4191
504.967	4.6925
505.17	4.57906
505.373	4.69318
505.576	4.50305
505.778	4.61025
505.981	4.48687
506.184	4.52823
506.387	4.33441
506.59	4.65092
506.793	4.42321
506.995	4.50371
507.198	4.32358
507.401	4.58057
507.604	4.48998
507.806	4.58139
508.009	4.48178
508.212	4.67736
508.414	4.52114
508.617	4.5848
508.82	4.47816
509.022	4.77536
509.225	4.57765
509.427	4.53232
509.63	4.57048
509.833	4.36327
510.035	4.59731
510.238	4.5572
510.44	4.45808
510.643	4.7348
510.845	4.60288
511.048	4.68162
511.25	4.45133
511.453	4.54007
511.655	4.5182
511.858	4.57329
512.06	4.58281
512.262	4.59111
512.465	4.62481
512.667	4.51868
512.869	4.54068
513.072	4.65901
513.274	4.79175
513.476	4.67385
513.679	4.65106
513.881	4.37303
514.083	4.7214
514.286	4.42694
514.488	4.62925
514.69	4.586
514.892	4.63898
515.094	4.69488
515.297	4.43289
515.499	4.63455
515.701	4.6069
515.903	4.6823
516.105	4.67238
516.307	4.65119
516.509	4.41327
516.711	4.61062
516.913	4.59936
517.116	4.70289
517.318	4.65377
517.52	4.65775
517.722	4.66059
517.924	4.65001
518.126	4.99569
518.328	5.02991
518.529	4.98309
518.731	5.16863
518.933	4.87205
519.135	4.94941
519.337	4.87144
519.539	4.73681
519.741	4.74617
519.943	4.74491
520.145	4.59612
520.346	4.81985
520.548	4.63236
520.75	4.60713
520.952	4.57355
521.153	4.75445
521.355	4.44199
521.557	4.60331
521.759	4.56458
521.96	4.60449
522.162	4.49611
522.364	4.66819
522.565	4.68867
522.767	4.62972
522.969	4.62613
523.17	4.7588
523.372	4.56837
523.573	4.86034
523.775	4.67766
523.977	4.61672
524.178	4.66952
524.38	4.71553
524.581	4.60915
524.783	4.65967
524.984	4.93185
525.186	5.24868
525.387	5.43305
525.589	5.45021
525.79	5.53194
525.991	5.63072
526.193	5.64752
526.394	5.6951
526.596	5.70894
526.797	6.10722
526.998	6.17765
527.2	6.86191
527.401	7.71291
527.602	8.63162
527.803	9.99525
528.005	10.95035
528.206	11.82623
528.407	12.49347
528.608	12.51351
528.81	12.47265
529.011	12.35017
529.212	11.93631
529.413	11.11685
529.614	10.14604
529.815	9.06759
530.017	7.90005
530.218	7.07918
530.419	6.41166
530.62	5.83193
530.821	5.73715
531.022	5.49439
531.223	5.64143
531.424	5.3251
531.625	5.60092
531.826	5.67621
532.027	6.18149
532.228	6.67711
532.429	7.11036
532.63	7.40869
532.831	8.00486
533.032	8.00189
533.233	8.09924
533.433	7.9931
533.634	8.10695
533.835	7.63034
534.036	7.25284
534.237	6.70326
534.438	6.3211
534.638	5.56367
534.839	5.34336
535.04	4.98473
535.241	4.82141
535.441	5.22476
535.642	5.25997
535.843	5.1402
536.043	5.55014
536.244	5.537
536.445	5.66858
536.645	5.78141
536.846	5.69403
537.047	5.41467
537.247	5.47948
537.448	5.07739
537.648	4.90821
537.849	4.93723
538.049	4.71444
538.25	4.83627
538.451	4.91075
538.651	4.80759
538.851	5.02309
539.052	4.88554
539.252	4.89634
539.453	4.77489
539.653	4.78793
539.854	4.89603
540.054	5.52405
540.254	6.36712
540.455	7.10348
540.655	7.60886
540.855	8.33251
541.056	8.79111
541.256	9.00024
541.456	9.16033
541.657	9.0762
541.857	9.04577
542.057	8.65178
542.257	8.18303
542.458	7.71874
542.658	7.10639
542.858	6.51782
543.058	6.0184
543.258	5.86238
543.458	5.53279
543.659	5.16761
543.859	5.078
544.059	4.98462
544.259	4.88754
544.459	4.92618
544.659	4.89811
544.859	5.01791
545.059	4.87925
545.259	5.16563
545.459	4.89004
545.659	4.84145
545.859	4.95574
546.059	4.85475
546.259	4.79084
546.459	4.84479
546.659	4.96149
546.859	5.03224
547.059	5.07808
547.258	5.10174
547.458	5.04805
547.658	4.8734
547.858	4.96933
548.058	4.90528
548.258	4.88896
548.457	4.87075
548.657	5.1868
548.857	4.93651
549.057	4.89047
549.256	5.09521
549.456	4.94762
549.656	4.72516
549.855	4.86036
550.055	4.68405
550.255	4.92509
550.454	4.92471
550.654	4.77241
550.853	5.04004
551.053	5.07498
551.253	4.91234
551.452	4.99315
551.652	4.85947
551.851	4.88762
552.051	5.04767
552.25	4.72053
552.45	5.07917
552.649	4.92842
552.849	4.98755
553.048	5.07542
553.248	5.27883
553.447	4.81582
553.646	5.01912
553.846	4.9999
554.045	5.10124
554.244	4.91609
554.444	5.10834
554.643	5.10246
554.842	5.16916
555.042	5.10224
555.241	4.66754
555.44	4.73584
555.64	4.60868
555.839	5.22851
556.038	4.8322
556.237	4.84725
556.436	4.60512
556.636	5.01118
556.835	4.98963
557.034	5.1126
557.233	5.01492
557.432	4.56598
557.631	5.06566
557.83	4.76677
558.029	5.15814
558.228	4.88515
558.427	4.7244
558.626	4.82421
558.825	4.79458
559.024	4.80622
559.223	4.97147
559.422	4.69384
559.621	4.91484
559.82	4.60251
560.019	4.85094
560.218	5.10731
560.417	4.9297
560.616	4.96228
560.815	5.15199
561.014	4.88746
561.212	5.27847
561.411	5.31782
561.61	5.03599
561.809	5.09597
562.008	5.14938
562.206	4.86653
562.405	4.93084
562.604	4.79567
562.803	5.06577
563.001	4.92272
563.2	4.91946
563.399	4.97294
563.597	4.9671
563.796	4.99589
563.995	4.91605
564.193	5.08589
564.392	4.92526
564.59	5.12444
564.789	4.94348
564.988	5.09167
565.186	5.14562
565.385	5.1837
565.583	5.32589
565.782	5.32898
565.98	5.17881
566.179	5.03168
566.377	5.39456
566.575	5.3002
566.774	5.43896
566.972	5.34267
567.171	5.45373
567.369	5.11831
567.567	5.25858
567.766	5.24652
567.964	5.02276
568.162	5.15117
568.361	5.05452
568.559	4.99752
568.757	5.18362
568.956	5.22867
569.154	5.08755
569.352	5.05398
569.55	5.30714
569.748	5.36032
569.947	5.09418
570.145	5.20524
570.343	5.17663
570.541	5.51184
570.739	5.28966
570.937	5.26008
571.135	5.19837
571.333	5.08778
571.532	5.49253
571.73	5.43611
571.928	5.39406
572.126	5.22032
572.324	5.41116
572.522	5.46518
572.72	5.48402
572.918	5.44764
573.116	5.59337
573.313	5.3766
573.511	5.33877
573.709	5.21872
573.907	5.34614
574.105	5.35981
574.303	5.13638
574.501	5.23379
574.699	5.31713
574.896	5.34665
575.094	5.3915
575.292	5.09379
575.49	5.75799
575.688	5.29044
575.885	5.32526
576.083	5.68291
576.281	5.53151
576.478	5.19596
576.676	5.39638
576.874	5.05998
577.071	5.40825
577.269	5.25693
577.467	5.55238
577.664	5.06706
577.862	5.33363
578.059	5.26364
578.257	5.31166
578.455	4.82648
578.652	5.31019
578.85	5.14233
579.047	5.28038
579.245	5.18008
579.442	4.65292
579.64	5.03133
579.837	5.01313
580.034	5.60152
580.232	5.04375
580.429	4.79375
580.627	5.31832
580.824	5.1162
581.021	4.97996
581.219	4.78271
581.416	5.01469
581.613	5.15096
581.811	5.06486
582.008	4.91445
582.205	4.99838
582.402	5.10923
582.6	4.84538
582.797	5.01383
582.994	4.99181
583.191	5.24383
583.388	4.78238
583.586	4.94927
583.783	4.9406
583.98	5.0121
584.177	4.92771
584.374	4.83836
584.571	5.09034
584.768	4.73522
584.965	4.72227
585.162	5.27124
585.359	5.42801
585.556	5.1699
585.753	5.11753
585.95	4.99335
586.147	5.09281
586.344	4.95117
586.541	4.81159
586.738	5.11815
586.935	4.82319
587.132	4.72627
587.329	4.89823
587.526	4.88903
587.722	5.31729
587.919	4.67125
588.116	5.36464
588.313	5.2483
588.51	5.28487
588.706	5.18068
588.903	5.11735
589.1	5.22725
589.297	5.37751
589.493	5.44602
589.69	4.93171
589.887	5.1446
590.083	4.69027
590.28	5.00691
590.477	5.09486
590.673	4.96918
590.87	5.32815
591.067	5.16119
591.263	5.13977
591.46	4.87976
591.656	4.98314
591.853	5.23852
592.049	5.15806
592.246	5.26974
592.442	4.89502
592.639	5.43047
592.835	5.4475
593.032	5.15664
593.228	5.05067
593.425	4.43122
593.621	5.16838
593.817	5.23007
594.014	5.14598
594.21	5.07744
594.406	5.05879
594.603	5.30478
594.799	4.97358
594.995	5.19767
595.192	5.166
595.388	5.35117
595.584	5.341
595.78	5.43722
595.977	5.47649
596.173	5.51878
596.369	5.35738
596.565	5.53286
596.761	5.41426
596.957	5.69355
597.154	5.36403
597.35	5.69735
597.546	5.34131
597.742	5.78914
597.938	5.624
598.134	5.30541
598.33	5.28617
598.526	5.49985
598.722	5.31009
598.918	5.19025
599.114	5.29882
599.31	4.88419
599.506	5.10991
599.702	5.05409
599.898	4.69002
600.094	5.10094
600.29	4.87569
600.485	5.11601
600.681	5.08502
600.877	5.36341
601.073	5.14812
601.269	5.33706
601.465	5.27807
601.66	5.14954
601.856	4.82952
602.052	5.36029
602.248	5.62951
602.443	5.00924
602.639	5.25171
602.835	5.34079
603.03	5.36556
603.226	5.66961
603.422	5.46459
603.617	5.56652
603.813	5.59541
604.009	5.79846
604.204	5.68711
604.4	5.57654
604.595	5.80413
604.791	5.64139
604.986	5.537
605.182	5.82228
605.377	5.9502
605.573	5.52028
605.768	5.68259
605.964	5.25613
606.159	5.57816
606.355	5.34938
606.55	5.24449
606.746	5.249
606.941	5.56956
607.136	5.56022
607.332	5.32008
607.527	4.674
607.722	5.5497
607.918	5.33321
608.113	5.55378
608.308	5.29508
608.503	5.63973
608.699	5.60825
608.894	5.77005
609.089	5.35199
609.284	5.58409
609.479	5.78915
609.675	5.74335
609.87	5.80801
610.065	5.88596
610.26	5.71591
610.455	5.52459
610.65	5.61267
610.845	5.7291
611.04	5.76154
611.235	5.16101
611.43	5.29238
611.625	5.25648
611.82	5.47064
612.015	5.08332
612.21	5.1285
612.405	4.97261
612.6	4.82697
612.795	4.88804
612.99	4.87739
613.185	5.02712
613.38	5.08756
613.575	4.92516
613.77	4.98347
613.965	4.37585
614.159	4.87558
614.354	5.15476
614.549	4.79774
614.744	5.1535
614.938	5.07507
615.133	4.94296
615.328	5.47807
615.523	5.07159
615.717	5.49306
615.912	4.62727
616.107	4.93248
616.301	5.15537
616.496	5.09878
616.691	4.975
616.885	5.43265
617.08	5.68268
617.274	5.02329
617.469	5.30241
617.664	5.10776
617.858	4.84355
618.053	4.78536
618.247	5.04506
618.442	4.61018
618.636	5.04652
618.831	4.57019
619.025	4.88069
619.219	5.40242
619.414	4.64144
619.608	4.88724
619.803	4.84669
619.997	5.52034
620.191	5.13674
620.386	4.98955
620.58	4.80708
620.774	4.87747
620.969	4.76746
621.163	5.01827
621.357	4.62179
621.551	5.17364
621.746	4.98328
621.94	5.00089
622.134	4.87592
622.328	5.27447
622.522	4.57379
622.716	5.04623
622.911	5.54315
623.105	5.50116
623.299	5.34642
623.493	5.15222
623.687	4.81156
623.881	5.51346
624.075	4.87544
624.269	4.77535
624.463	5.15622
624.657	4.60565
624.851	5.31689
625.045	4.91801
625.239	5.34725
625.433	5.54107
625.627	5.34252
625.821	5.26
626.015	5.1463
626.209	5.19048
626.403	5.38956
626.596	5.59426
626.79	5.66962
626.984	5.13164
627.178	5.64457
627.372	5.80119
627.565	5.34497
627.759	4.92829
627.953	5.36131
628.147	5.38039
628.34	4.96527
628.534	5.53701
628.728	5.2883
628.921	4.97621
629.115	5.13755
629.309	5.64624
629.502	5.49212
629.696	4.55274
629.89	4.70422
630.083	4.65726
630.277	4.91648
630.47	5.30714
630.664	4.72774
630.857	4.68058
631.051	5.13075
631.244	5.06103
631.438	5.1909
631.631	4.64823
631.825	5.76595
632.018	5.01611
632.212	4.98695
632.405	4.95454
632.598	4.74964
632.792	5.18429
632.985	5.12593
633.178	5.62359
633.372	4.70384
633.565	5.14377
633.758	5.33362
633.952	5.12321
634.145	5.14519
634.338	4.02506
634.531	4.93302
634.724	5.06905
634.918	4.97691
635.111	5.47404
635.304	5.17253
635.497	5.7995
635.69	4.69998
635.883	5.30968
636.077	5.33454
636.27	5.18502
636.463	5.10058
636.656	4.76558
636.849	5.21052
637.042	5.95109
637.235	4.73318
637.428	5.49847
637.621	5.36226
637.814	5.00752
638.007	4.88384
638.2	5.23202
638.393	5.64033
638.586	4.42373
638.778	4.7902
638.971	5.16038
639.164	4.87823
639.357	4.4471
639.55	5.26035
639.743	5.18481
639.935	4.67358
640.128	4.86534
640.321	4.66209
640.514	5.2032
640.707	4.72385
640.899	4.59445
641.092	4.47163
641.285	6.53946
641.477	3.9008
641.67	5.63475
641.863	5.08673
642.055	5.01648
642.248	4.57348
642.441	4.52441
642.633	5.06009
642.826	5.07612
643.018	4.47955
643.211	5.08357
643.403	4.96535
643.596	5.19901
643.788	5.31958
643.981	4.94987
644.173	4.88654
644.366	4.48772
644.558	5.12752
644.751	5.16008
644.943	4.78157
645.135	4.75576
645.328	5.08685
645.52	4.79594
645.712	5.63564
645.905	5.0855
646.097	4.59571
646.289	4.33412
646.482	5.57367
646.674	4.16356
646.866	4.82703
647.058	4.89807
647.251	4.51401
647.443	4.38774
647.635	5.01195
647.827	3.99543
648.019	4.97288
648.211	3.99732
648.404	4.33853
648.596	4.95155
648.788	4.92776
648.98	5.10605
649.172	4.87686
649.364	4.39832
649.556	4.65915
649.748	6.43482
649.94	4.53358
650.132	4.76491
650.324	4.83805
650.516	4.95551
650.708	5.08672
650.9	4.97112
651.092	4.68673
651.284	5.29358
651.476	4.59088
651.667	5.39558
651.859	5.16732
652.051	4.94694
652.243	4.95774
652.435	5.35746
652.627	5.19675
652.818	5.34571
653.01	4.64978
653.202	4.95604
653.394	5.04852
653.585	4.46804
653.777	5.92183
653.969	4.84633
654.16	5.446
654.352	5.29263
654.544	4.54162
654.735	5.03356
654.927	5.64471
655.118	5.55824
655.31	4.86053
655.502	5.61551
655.693	4.78549
655.885	5.76062
656.076	4.9554
656.268	5.5699
656.459	4.6734
656.651	4.70475
656.842	5.19194
657.034	4.85107
657.225	5.60902
657.416	4.68429
657.608	5.37763
657.799	4.95619
657.99	5.53907
658.182	5.3815
658.373	5.25362
658.564	5.98227
658.756	5.55495
658.947	5.22661
659.138	5.5865
659.33	5.62355
659.521	5.76427
659.712	5.70438
659.903	5.58014
660.094	5.65142
660.286	4.98595
660.477	5.52613
660.668	5.28002
660.859	5.21738
661.05	4.80159
661.241	5.51018
661.432	4.92011
661.623	4.88562
661.814	5.40514
662.006	4.98009
662.197	5.07583
662.388	5.66616
662.579	5.37016
662.77	5.24719
662.96	5.66201
663.151	5.0737
663.342	4.49087
663.533	5.13797
663.724	5.21823
663.915	5.42577
664.106	4.45243
664.297	5.5195
664.488	4.06083
664.678	5.01876
664.869	5.67546
665.06	4.78366
665.251	5.05645
665.442	4.43669
665.632	4.74853
665.823	5.36009
666.014	3.90551
666.204	5.83321
666.395	5.01449
666.586	4.68843
666.776	5.59354
666.967	4.98483
667.158	4.99456
667.348	4.43768
667.539	5.07003
667.729	5.13718
667.92	5.2186
668.111	5.48493
668.301	5.23731
668.492	5.05504
668.682	5.35667
668.873	5.28233
669.063	5.53799
669.253	6.07382
669.444	4.79819
669.634	5.37925
669.825	5.62936
670.015	4.72275
670.206	4.85454
670.396	5.31365
670.586	5.87697
670.777	5.76477
670.967	4.59928
671.157	4.44227
671.347	4.72656
671.538	5.67728
671.728	5.4066
671.918	5.56609
672.108	5.77756
672.299	4.8745
672.489	5.20744
672.679	4.58389
672.869	5.0979
673.059	5.78031
673.249	4.18757
673.44	5.1084
673.63	4.7677
673.82	5.7121
674.01	5.10409
674.2	5.04423
674.39	6.36404
674.58	5.74956
674.77	4.27864
674.96	5.43042
675.15	5.82248
675.34	5.11695
675.53	5.05027
675.72	5.82778
675.91	4.49471
676.099	5.52419
676.289	5.31808
676.479	4.88783
676.669	4.89914
676.859	5.14271
677.049	5.09763
677.238	5.45249
677.428	4.42819
677.618	5.42137
677.808	5.35641
677.997	5.55186
678.187	4.51009
678.377	4.87688
678.567	5.96275
678.756	4.95345
678.946	5.48263
679.136	5.13299
679.325	5.24114
679.515	4.93916
679.704	5.27418
679.894	5.7996
680.084	5.87342
680.273	6.09919
680.463	5.73828
680.652	5.82524
680.842	6.07694
681.031	6.58059
681.221	5.46393
681.41	6.20315
681.6	5.3957
681.789	5.74963
681.978	6.03275
682.168	5.37977
682.357	5.73558
682.547	5.37539
682.736	5.95038
682.925	5.64212
683.115	6.56165
683.304	6.0386
683.493	5.8007
683.682	5.0555
683.872	5.4148
684.061	5.7467
684.25	5.07765
684.439	5.19909
684.629	5.43493
684.818	4.91986
685.007	5.2289
685.196	5.3701
685.385	5.72429
685.574	5.26434
685.763	5.44402
685.952	5.00912
686.142	5.54307
686.331	5.20262
686.52	6.09304
686.709	6.86513
686.898	5.43873
687.087	5.63228
687.276	4.96158
687.465	4.90222
687.654	5.45418
687.842	5.76363
688.031	6.4337
688.22	5.59373
688.409	4.88707
688.598	5.11978
688.787	5.96169
688.976	5.06587
689.165	5.92693
689.353	5.79901
689.542	4.93857
689.731	6.46465
689.92	6.08823
690.108	6.1065
690.297	5.88565
690.486	4.90877
690.675	6.21695
690.863	5.56764
691.052	5.71385
691.241	6.0191
691.429	5.36211
691.618	4.98512
691.806	3.99195
691.995	5.30819
692.184	5.59977
692.372	6.00334
692.561	6.30552
692.749	5.89123
692.938	7.0535
693.126	5.02795
693.315	5.12943
693.503	5.43079
693.692	5.02928
693.88	5.49617
694.068	5.56792
694.257	4.29345
694.445	6.30053
694.634	5.0599
694.822	5.63281
695.01	5.9049
695.199	5.70816
695.387	4.61741
695.575	5.60689
695.763	5.07927
695.952	5.14644
696.14	5.27514
696.328	5.52138
696.516	5.36229
696.705	6.1663
696.893	5.99151
697.081	4.9017
697.269	6.80596
697.457	5.85068
697.645	5.64097
697.833	5.79716
698.021	6.49187
698.21	6.02074
698.398	6.34544
698.586	6.8458
698.774	5.77308
698.962	6.38056
699.15	6.26824
699.338	6.52435
699.526	6.63372
699.714	5.85233
699.901	5.79487
700.089	7.24298
700.277	5.95458
700.465	5.89453
700.653	6.81034
700.841	6.6039
701.029	5.88904
701.217	5.94754
701.404	6.62403
701.592	7.34605
701.78	7.17382
701.968	5.93501
702.155	5.89232
702.343	4.79327
702.531	5.90925
702.718	5.48151
702.906	5.32112
703.094	5.34351
703.281	6.86047
703.469	6.04146
703.657	6.68994
703.844	7.31684
704.032	5.99427
704.219	6.7
704.407	5.27921
704.595	5.57275
704.782	4.62278
704.97	5.34773
705.157	4.82538
705.345	5.37261
705.532	7.13455
705.719	3.54433
705.907	4.62956
706.094	4.69934
706.282	4.88255
706.469	6.07941
706.656	5.45594
706.844	5.50916
707.031	5.24107
707.218	6.1187
707.406	6.48291
707.593	5.9213
707.78	5.7563
707.968	6.90804
708.155	5.24915
708.342	5.9663
708.529	5.60851
708.716	5.81741
708.904	6.79387
709.091	6.2594
709.278	5.93035
709.465	8.79656
709.652	6.59094
709.839	6.32941
710.026	5.34684
710.213	6.14542
710.4	6.37738
710.587	6.45161
710.774	6.78907
710.961	6.75187
711.148	5.58154
711.335	4.69648
711.522	4.37618
711.709	4.3104
711.896	6.94062
712.083	5.61178
712.27	5.56257
712.457	6.32149
712.644	5.24912
712.831	7.7048
713.017	6.07845
713.204	6.22614
713.391	7.21454
713.578	6.43922
713.765	5.17527
713.951	5.4563
714.138	7.69372
714.325	5.36751
714.512	7.31938
714.698	5.16037
714.885	6.74773
715.072	6.02543
715.258	4.29448
715.445	5.42878
715.631	7.10107
715.818	4.99813
716.005	6.15037
716.191	6.32323
716.378	6.15937
716.564	7.0007
716.751	5.80196
716.937	5.88328
717.124	6.00491
717.31	4.00501
717.497	5.68154
717.683	6.053
717.869	5.77974
718.056	5.40458
718.242	5.90904
718.429	4.99725
718.615	5.31322
718.801	7.81689
718.988	8.0269
719.174	5.5008
719.36	5.16105
719.547	6.60847
719.733	5.92279
719.919	5.14135
720.105	5.69897
720.291	6.531
720.478	7.27732
720.664	7.22048
720.85	6.02677
721.036	9.93096
721.222	4.72079
721.408	5.5297
721.595	6.87449
721.781	5.89967
721.967	4.47207
722.153	8.20402
722.339	5.74588
722.525	7.03629
722.711	6.12403
722.897	4.21032
723.083	6.92547
723.269	7.90078
723.455	8.61961
723.641	5.35443
723.827	4.25673
724.012	4.95474
724.198	4.41436
724.384	7.93405
724.57	6.09627
724.756	4.91956
724.942	4.14808
725.127	4.97178
725.313	6.99301
725.499	8.14052
725.685	5.54252
725.87	5.68763
726.056	5.73534
726.242	7.0511
726.428	5.66802
726.613	6.45485
726.799	6.64827
726.985	5.81917
727.17	5.40925
727.356	5.3168
727.541	4.89528
727.727	6.16723
727.913	6.00349
728.098	6.73026
728.284	6.48573
728.469	3.6412
728.655	4.54874
728.84	5.81389
729.026	7.6742
729.211	4.51122
729.397	7.03984
729.582	6.41703
729.767	7.56985
729.953	6.52218
730.138	6.91303
730.323	7.19009
730.509	6.28541
730.694	8.30942
730.879	6.11071
731.065	5.04377
731.25	8.34771
731.435	6.51514
731.621	6.11197
731.806	4.8389
731.991	4.70791
732.176	4.5685
732.361	7.58059
732.547	5.1446
732.732	4.54509
732.917	8.99875
733.102	6.01685
733.287	5.39394
733.472	6.89643
733.657	6.05365
733.842	4.23143
734.027	5.91038
734.212	5.32814
734.397	5.16224
734.582	5.70477
734.767	6.98806
734.952	7.07486
735.137	5.88715
735.322	7.80335
735.507	5.00995
735.692	2.80496
735.877	7.26776
736.062	7.77579
736.247	8.56843
736.431	6.40137
736.616	7.68648
736.801	5.43596
736.986	7.23685
737.171	3.38577
737.355	7.5153
737.54	7.96939
737.725	8.34268
737.909	8.10553
738.094	5.7842
738.279	8.20406
738.463	5.72498
738.648	3.05634
738.833	8.49686
739.017	7.04935
739.202	6.80037
739.386	4.82978
739.571	5.09025
739.756	4.82126
739.94	6.67997
740.125	5.58172
740.309	6.72304
740.494	5.85063
740.678	8.26592
740.863	5.21793
741.047	5.66997
741.231	7.05315
741.416	5.57917
741.6	10.1009
741.785	4.82491
741.969	9.48692
742.153	5.26513
742.338	5.04342
742.522	8.8082
742.706	9.34752
742.89	3.76973
743.075	8.67275
743.259	9.55169
743.443	3.96554
743.627	8.75312
743.812	6.69754
743.996	4.47884
744.18	5.10375
744.364	6.04737
744.548	10.40577
744.732	3.85487
744.916	9.88322
745.1	5.70416
745.285	7.167
745.469	2.97742
745.653	11.71114
745.837	3.90678
746.021	7.71474
746.205	8.64373
746.389	5.35308
746.573	3.38367
746.757	12.20652
746.94	5.05292
747.124	9.64684
747.308	6.03647
747.492	7.24994
747.676	5.66407
747.86	10.57191
748.044	6.54534
748.227	4.92933
748.411	12.89093
748.595	7.42851
748.779	6.00341
748.963	7.99906
749.146	6.45555
749.33	6.82202
749.514	6.83863
749.697	7.26998
749.881	5.53932
750.065	5.08765
750.248	10.12036
750.432	10.76807
750.616	5.88135
750.799	3.05484
750.983	6.93458
751.166	6.91181
751.35	6.70996
751.533	-0.58335
751.717	7.48559
751.9	10.11899
752.084	3.61972
752.267	4.54479
752.451	8.19105
752.634	5.82227
752.818	4.59715
753.001	5.86572
753.184	7.56864
753.368	9.14756
753.551	4.92265
753.734	2.87969
753.918	12.39596
754.101	5.19571
754.284	6.39318
754.467	6.29442
754.651	3.39846
754.834	5.90118
755.017	6.90739
755.2	9.07825
755.384	5.41465
755.567	9.6229
755.75	3.39868
755.933	6.22821
756.116	5.29699
756.299	9.08495
756.482	5.70493
756.665	6.33163
756.848	7.36561
757.032	7.91397
757.215	2.20316
757.398	5.42905
757.581	7.52801
757.764	15.75141
757.947	2.72843
758.129	8.64857
758.312	5.03983
758.495	6.42499
758.678	6.75473
758.861	6.01047
759.044	4.57797
759.227	3.1556
759.41	6.80354
759.592	5.46765
759.775	4.80071
759.958	5.05176
760.141	5.27882
760.324	5.66751
760.506	8.40679
760.689	7.35531
760.872	13.40385
761.054	6.7993
761.237	8.4795
761.42	7.83919
761.602	7.92064
761.785	4.94917
761.968	8.84062
762.15	6.66886
762.333	8.5141
762.515	6.24877
762.698	6.40749
762.88	7.50205
763.063	4.37072
763.245	6.93362
763.428	5.63737
763.61	6.58038
763.793	6.21752
763.975	4.65968
764.158	6.85216
764.34	5.71348
764.522	3.66701
764.705	6.13673
764.887	7.54822
765.069	5.46031
765.252	8.42547
765.434	7.91343
765.616	10.40396
765.799	7.31937
765.981	10.45466
766.163	6.4972
766.345	8.85283
766.528	7.06933
766.71	6.93938
766.892	7.84336
767.074	7.3202
767.256	5.83008
767.438	3.63622
767.62	7.05436
767.802	8.23377
767.985	12.73597
768.167	9.9287
768.349	7.54927
768.531	10.06757
768.713	9.79752
768.895	5.52523
769.077	5.65351
769.259	15.63901
769.441	15.1089
769.623	5.84459
769.804	15.72582
769.986	7.69968
770.168	12.48949
770.35	17.11692
770.532	12.07923
770.714	14.36253
770.896	20.69332
771.077	4.34651
771.259	11.31243
771.441	-0.5802
771.623	13.5869
771.804	19.22142
771.986	5.42492
772.168	2.7167
772.35	18.1098
772.531	28.45241
772.713	13.14905
772.894	-3.14231
773.076	11.26824
773.258	11.54332
773.439	19.61337
773.621	36.00846
773.802	6.53142
773.984	5.54361
774.166	9.03233
774.347	17.1963
774.529	14.42423
774.71	7.95938
774.891	7.8726
775.073	5.70821
775.254	10.51656
775.436	5.07034
775.617	41.57826
775.799	-5.04895
775.98	25.78815
776.161	20.44635
776.343	29.85085
776.524	9.78095
776.705	18.12855
776.886	4.22529
777.068	4.01256
777.249	-356.04156
777.43	47.96087
777.611	1.74624
777.793	4.55096
777.974	5.39138
778.155	4.49976
778.336	8.32088
778.517	101.72343
778.698	6.07479
778.879	3.74881
779.061	1.93796
779.242	14.54785
779.423	13.44369
779.604	10.75474
779.785	8.6262
779.966	8.93084
780.147	25.53553
780.328	16.81059
780.509	-312.03088
780.69	11.28308
780.871	5.40595
781.051	8.9873
781.232	7.1223
781.413	-1.00695
781.594	11.84132
781.775	6.33727
781.956	4.01838
782.137	6.21339
782.317	6.68512
782.498	9.14694
782.679	11.37466
782.86	17.66895
783.04	13.00347
783.221	12.7885
783.402	63.8685
783.583	9.49282
783.763	14.37058
783.944	5.12042
784.124	6.01286
784.305	27.68324
784.486	11.24891
784.666	8.22673
784.847	8.9362
785.027	-175.59528
785.208	6.68183
785.388	9.89803
785.569	3.88033
785.749	12.66933
785.93	6.48405
786.11	8.30955
786.291	13.35166
786.471	0.56609
786.652	9.94506
786.832	8.68597
787.012	11.70626
787.193	3.17426
787.373	9.05919
787.553	10.34029
787.734	9.79859
787.914	8.08493
788.094	1.61473
788.275	13.90988
788.455	11.10594
788.635	4.34874
788.815	7.80111
788.995	7.43296
789.176	4.25402
789.356	7.60338
789.536	8.53802
789.716	17.13471
789.896	5.15054
790.076	8.0962
790.256	13.72311
790.436	6.22716
790.616	10.73215
790.796	13.1272
790.976	8.33148
791.156	6.41897
791.336	7.32639
791.516	6.12255
791.696	10.19533
791.876	7.50521
792.056	6.23659
792.236	23.11987
792.416	11.11833
792.596	13.24084
792.776	13.408
792.956	4.75102
793.135	24.12349
793.315	3.5889
793.495	25.48112
793.675	16.34393
793.854	10.74044
794.034	19.5403
794.214	5.3132
794.394	16.42163
794.573	20.98236
794.753	12.73643
794.933	4.4269
795.112	11.93509
795.292	12.55728
795.472	29.83632
795.651	14.97929
795.831	4.52938
796.01	12.04492
796.19	9.53502
796.369	12.51689
796.549	16.73011
796.728	4.16537
796.908	7.18122
797.087	4.82832
797.267	4.88025
797.446	9.67252
797.626	14.68344
797.805	14.64345
797.984	7.72673
798.164	27.04732
798.343	7.24823
798.522	10.24289
798.702	11.78209
798.881	7.52773
799.06	12.87477
799.239	5.70511
799.419	6.42405
799.598	34.31744
799.777	10.2848
799.956	31.37612
800.136	8.0632
800.315	12.09507
800.494	15.49864
800.673	20.4357
800.852	8.30368
801.031	18.82796
801.21	15.6538
801.389	9.32881
801.568	8.77411
801.747	52.54838
801.926	10.18411
802.105	25.51248
802.284	9.53489
802.463	31.57161
802.642	20.16767
802.821	8.54675
803	38.67165
803.179	22.66271
803.358	34.12425
803.537	7.96326
803.716	8.18763
803.895	5.80893
804.073	5.53982
804.252	11.54824
804.431	6.70349
804.61	4.53223
804.789	17.84005
804.967	4.8028
805.146	10.21347
805.325	29.23772
805.503	15.98468
805.682	4.78395
805.861	-81.40357
806.039	24.24399
806.218	11.16782
806.397	12.03436
806.575	4.51883
806.754	14.98175
806.932	12.54552
807.111	21.74715
807.289	19.36201
807.468	8.57757
807.646	27.79997
807.825	18.06965
808.003	19.38666
808.182	19.97502
808.36	13.48967
808.539	8.85085
808.717	42.75448
808.895	10.2185
809.074	11.85949
809.252	9.25807
809.43	-11.09175
809.609	17.78754
809.787	-43.35953
809.965	11.96183
810.144	11.9427
810.322	4.9852
810.5	15.37765
810.678	20.58934
810.856	-556.80088
811.035	29.06134
811.213	20.29842
811.391	63.28873
811.569	10.59401
811.747	-49.10258
811.925	21.822
812.103	11.24301
812.281	16.41216
812.459	-88.18852
812.637	677.28828
812.816	9.2807
812.994	-77.76469
813.171	40.06276
813.349	-0.01242
813.527	20.42059
813.705	44.02768
813.883	-28.56042
814.061	42.93773
814.239	-14.24774
814.417	-52.07834
814.595	9.74608
814.773	17.10931
814.95	13.93939
815.128	10.25178
815.306	-2.42539
815.484	24.41522
815.662	7.45197
815.839	1.59708
816.017	5.82545
816.195	42.80505
816.372	10.67327
816.55	19.02379
816.728	111.87263
816.905	6.94618
817.083	389.46464
817.261	2.92899
817.438	-22.13052
817.616	961.16972
817.793	3.65941
817.971	20.65353
818.148	16.71301
818.326	58.70345
818.503	7.61334
818.681	71.87575
818.858	11.05297
819.036	15.28768
819.213	14.95749
819.391	3.70016
819.568	6.32633
819.745	6.8933
819.923	29.3124
820.1	4.25077
820.277	9.88484
820.455	11.63535
820.632	8.61639
820.809	10.50502
820.986	7.87399
821.164	8.12166
821.341	6.20766
821.518	9.79587
821.695	7.0766
821.872	8.03611
822.05	8.25523
822.227	7.37993
822.404	7.6699
822.581	7.97603
822.758	7.60606
822.935	7.14023
823.112	7.83037
823.289	7.96174
823.466	7.74785
823.643	7.88402
823.82	8.54716
823.997	9.29963
824.174	9.88165
824.351	9.89198
824.528	9.14625
824.705	8.48782
824.882	10.504
825.059	11.71505
825.236	9.24825
825.412	8.14537
825.589	11.23712
825.766	15.75039
825.943	7.30117
826.12	10.5805
826.296	7.43665
826.473	7.42007
826.65	8.62285
826.827	10.57164
827.003	8.44473
827.18	7.51689
827.357	9.11975
827.533	7.12468
827.71	6.42842
827.887	8.60199
828.063	7.989
828.24	7.21516
828.416	8.4862
828.593	7.54285
828.769	11.11318
828.946	14.74322
829.122	12.96371
829.299	11.13972
829.475	7.03407
829.652	7.44539
829.828	19.32534
830.005	7.90591
830.181	17.14918
830.357	17.86048
830.534	1.8954
830.71	4.25944
830.886	14.2435
831.063	17.38866
831.239	28.9195
831.415	17.65518
831.592	39.07388
831.768	3.35959
831.944	9.17354
832.12	42.43572
832.296	14.22671
832.473	19.8578
832.649	2.93824
832.825	9.11686
833.001	6.5271
833.177	14.34247
833.353	7.29956
833.529	9.02375
833.705	9.64557
833.881	7.5878
834.058	6.09344
834.234	7.13705
834.41	6.42386
834.586	7.62557
834.761	6.58844
834.937	9.82598
835.113	9.39721
835.289	8.74899
835.465	3.82889
835.641	7.79109
835.817	8.59083
835.993	23.46562
836.169	8.76863
836.344	10.20948
836.52	13.2817
836.696	12.3008
836.872	7.67237
837.048	-9.03897
837.223	18.24537
837.399	-146.15679
837.575	12.76851
837.75	33.23425
837.926	-55.04921
838.102	-12.33558
838.277	-20.21824
838.453	-9.90078
838.628	-8.77594
838.804	14.91967
838.98	-24.69021
839.155	27.63309
839.331	-1372.16852
839.506	27.06212
839.682	-4.66507
839.857	98.33791
840.033	-80.62166
840.208	16.03723
840.384	4.61092
840.559	11.15894
840.734	31.51019
840.91	-9.68572
841.085	21.80006
841.26	26.31742
841.436	12.09553
841.611	6.19205
841.786	-67.39824
841.962	-8.49962
842.137	50.39269
842.312	17.05237
842.487	17.88802
842.663	20.93537
842.838	15.58197
843.013	-0.45632
843.188	-47.82021
843.363	-53.72138
843.538	-7.86555
843.714	1.60538
843.889	-5.29026
844.064	-12.42729
844.239	-13.93284
844.414	-7.91904
844.589	0.40924
844.764	-3.96258
844.939	-8.99626
845.114	-0.15294
845.289	-6.01045
845.464	-5.30404
845.639	-5.30202
845.814	-15.7907
845.989	-8.29205
846.163	0.49026
846.338	4.48987
846.513	-8.45989
846.688	1.07292
846.863	-1.47981
847.038	-5.1379
847.212	0.75458
847.387	-0.64882
847.562	-4.34214
847.737	-3.21416
847.911	59.19316
848.086	-17.29186
848.261	-4.81971
848.435	-0.22713
848.61	-9.15332
848.785	-11.88673
848.959	-1.99075
849.134	-3.18071
849.308	-0.07743
849.483	-7.04778
849.658	-5.56526
849.832	3.69955
850.007	-27.71383
850.181	-1.91333
850.356	-11.25741
850.53	1.13825
850.705	13.29276
850.879	13.48433
851.053	-4.47295
851.228	-29.49914
851.402	5.94915
851.577	-3.38194
851.751	-3.98586
851.925	-17.60485
852.099	81.22569
852.274	-11.35569
852.448	-13.18395
852.622	7.93414
852.797	-10.00539
852.971	8.68857
853.145	-9.83761
853.319	-2.88667
853.493	4.78733
853.668	-5.48497
853.842	0.39187
854.016	-0.19071
854.19	-0.1493
854.364	-0.63108
854.538	7.0282
854.712	6.95946
854.886	-16.29397
855.06	12.16785
855.234	21.85283
855.408	-1.95135
855.582	-10.02048
855.756	-5.07016
855.93	-1.21668
856.104	-1.43746
856.278	2.65235
856.452	1.31112
856.626	-3.26663
856.8	-3.28571
856.973	1.74892
857.147	-3.07586
857.321	-10.67617
857.495	-0.49671
857.669	-6.38876
857.842	-1.85988
858.016	3.23432
858.19	28.27264
858.364	-4.14462
858.537	0.3026
858.711	2.19789
858.885	-2.03861
859.058	-33.72329
859.232	-113.81092
859.405	-1092.32611
859.579	1.67265
859.753	4.32182
859.926	-21.21676
860.1	40.00522
860.273	-2.23112
860.447	0.76328
860.62	-0.53974
860.794	-0.83063
860.967	-5.6103
861.141	-6.01819
861.314	2.85073
861.487	-4.63942
861.661	-2.87225
861.834	1.32824
862.008	-4.12964
862.181	-7.25758
862.354	3.3085
862.528	4.32742
862.701	2.04264
862.874	29.24681
863.047	-20.64525
863.221	2.08793
863.394	75.05012
863.567	-2.35223
863.74	52.08824
863.913	-1.06198
864.087	-3.56537
864.26	-3.85064
864.433	-9.81823
864.606	0.41274
864.779	1.02683
864.952	-204.49013
865.125	5.1351
865.298	-5.21583
865.471	-2.60226
865.644	1.97676
865.817	-7.92326
865.99	7.30852
866.163	-2.19004
866.336	-13.42893
866.509	-3.14824
866.682	-5.06663
866.855	-1.06857
867.028	13.28084
867.2	4.72202
867.373	48.03531
867.546	-5.12318
867.719	6.20125
867.892	-7.96272
868.064	13.38786
868.237	-3.89936
868.41	-9.01865
868.583	-330.19653
868.755	-4.35557
868.928	-21.72944
869.101	-4.04968
869.273	-0.62113
869.446	-7.8889
869.619	-4.72264
869.791	17.83947
869.964	-3.26232
870.136	-3.52369
870.309	-5.53851
870.481	-13.53575
870.654	-184.08615
870.826	5.57941
870.999	6.57925
871.171	-3.95954
871.344	2.24041
871.516	0.15801
871.689	6.67955
871.861	-6.11695
872.033	3.68004
872.206	0.36531
872.378	-4.88189
872.55	-1.74563
872.723	-40.17412
872.895	-2.98819
873.067	-0.29678
873.24	-7.9967
873.412	7.16991
873.584	11.03774
873.756	-9.44681
873.928	1.56787
874.101	-4.16116
874.273	-4.7441
874.445	89.64496
874.617	11.17602
874.789	-20.73494
874.961	-12.62825
875.133	-2.63638
875.305	-9.29695
875.477	-31.32963
875.649	32.59281
875.821	-3.27339
875.993	0.23234
876.165	27.94656
876.337	2.94188
876.509	-0.52816
876.681	0.33168
876.853	-10.70248
877.025	-10.14446
877.197	-26.92684
877.369	-64.30506
877.541	-1.8333
877.712	-1.15868
877.884	-18.82398
878.056	-7.76973
878.228	-5.33676
878.4	6.8124
878.571	-59.4013
878.743	-19.05979
878.915	-8.03319
879.086	-90.8437
879.258	-19.47909
879.43	-13.05422
879.601	124.34377
879.773	-223.03082
879.945	4.8945
880.116	7.24319
880.288	6.73461
880.459	5.74514
880.631	6.11379
880.802	7.30409
880.974	6.65873
881.145	6.44919
881.317	6.71741
881.488	7.96211
881.66	7.28239
881.831	5.62951
882.002	8.6447
882.174	7.55818
882.345	6.96856
882.517	7.11388
882.688	8.80191
882.859	7.39334
883.03	11.10493
883.202	10.5453
883.373	9.05316
883.544	8.1168
883.715	16.68487
883.887	18.84024
884.058	10.44087
884.229	15.13783
884.4	26.95645
884.571	30.69215
884.742	4.694
884.914	13.02744
885.085	78.79806
885.256	-12.17638
885.427	-12.84944
885.598	-36.17316
885.769	-43.03013
885.94	-54.39993
886.111	14.48446
886.282	-8.36355
886.453	-4.63635
886.624	51.07231
886.795	-5.0647
886.966	-99.6848
887.136	-7.87303
887.307	-55.05729
887.478	-6.29879
887.649	-11.63829
887.82	-4.56191
887.991	-18.12751
888.161	-9.5447
888.332	3.61059
888.503	-25.52554
888.674	-7.6148
888.844	-4.27108
889.015	-6.94394
889.186	-46.84667
889.356	-2.58542
889.527	87.78644
889.698	0.25479
889.868	-21.34434
890.039	-10.40494
890.209	-25.06072
890.38	-5.51624
890.551	-7.60509
890.721	-3.72232
890.892	-0.92372
891.062	-10.25393
891.233	-6.44657
891.403	-29.66643
891.574	12.25538
891.744	-25.25512
891.914	-18.34238
892.085	10.44279
892.255	-42.18131
892.425	-3.91376
892.596	-5.97149
892.766	-0.96971
892.936	-8.32958
893.107	1.31168
893.277	-114.63011
893.447	32.10749
893.618	16.34758
893.788	-13.14119
893.958	18.35465
894.128	13.69815
894.298	17.32225
894.468	-268.12342
894.639	5.15149
894.809	3.48333
894.979	8.50032
895.149	5.59693
895.319	10.58423
895.489	15.43797
895.659	115.1243
895.829	10.74372
895.999	22.35292
896.169	9.24482
896.339	17.7384
896.509	-23.56294
896.679	-6.76117
896.849	1.21038
897.019	-4.47564
897.189	-7.06961
897.358	-10.7247
897.528	-3.08997
897.698	81.60494
897.868	-15.93727
898.038	-3.41088
898.208	-3.88395
898.377	-36.64328
898.547	2.21198
898.717	3.47343
898.886	-3.15924
899.056	2.61565
899.226	2.07333
899.395	2.44135
899.565	2.27605
899.735	3.87183
899.904	0.91175
900.074	8.8555
900.244	26.18378
900.413	2.72682
900.583	19.39942
900.752	-21.70578
900.922	-1.75898
901.091	-11.3619
901.261	-0.91284
901.43	-9.31876
901.599	-0.47189
901.769	-1.91981
901.938	-6.10689
902.108	-3.49129
902.277	-5.30359
902.446	-48.59822
902.616	-21.45213
902.785	-6.56584
902.954	1.6049
903.124	2.91613
903.293	-3.10268
903.462	53.153
903.631	-14.33753
903.801	31.84932
903.97	3.3956
904.139	12.29558
904.308	9.58782
904.477	12.14431
904.646	4.49982
904.816	2.06685
904.985	20.44883
905.154	-47.91831
