Data from WindowProjectSample3_Transmission__32__00032.txt Node

Date: Sun May 04 10:33:27 EDT 2025
User: jessi
Spectrometer: SR400872
Trigger mode: 0
Integration Time (sec): 5.000050E-1
Scans to average: 20
Electric dark correction enabled: true
Nonlinearity correction enabled: true
Boxcar width: 0
XAxis mode: Wavelengths
Number of Pixels in Spectrum: 3648
>>>>>Begin Spectral Data<<<<<
184.909	-1608.30745
185.132	-1268.37604
185.355	-1286.03142
185.578	-1079.49765
185.801	-3480.42212
186.024	-1025.80219
186.247	-1393.13398
186.47	-2528.24678
186.693	-184.59327
186.916	-189.29936
187.139	-985.93712
187.362	-1771.63735
187.585	-978.2978
187.808	-876.19411
188.031	-258548.50624
188.254	-1311.15229
188.476	-987.873
188.699	-1092.65861
188.922	557.2901
189.145	-1236.37535
189.368	-920.83685
189.591	-3721.79645
189.813	-675.14712
190.036	-1226.1808
190.259	-3113.44186
190.482	-1590.80882
190.705	-1727.10952
190.927	-974.51313
191.15	-1599.97698
191.373	-2249.90641
191.595	-2541.89613
191.818	-1232.06798
192.041	-16118.73426
192.263	-1499.18192
192.486	-468.72947
192.709	-1678.0734
192.931	-4216.40377
193.154	-1206.57798
193.377	-1224.60787
193.599	12000.78049
193.822	-817.46528
194.044	-3887.93776
194.267	-4794.1876
194.489	-656.2357
194.712	-1766.30623
194.934	-1623.99238
195.157	-971.48679
195.379	-771.98794
195.602	-846.89299
195.824	-1039.52617
196.047	-889.03548
196.269	-1041.39215
196.492	-1078.24007
196.714	-1008.76582
196.936	-1530.87059
197.159	-901.2465
197.381	-880.20462
197.604	-1237.36314
197.826	-1991.05944
198.048	-1570.94809
198.271	-1190.26881
198.493	-1017.10141
198.715	-878.16547
198.938	-6221.1727
199.16	-1136.1302
199.382	-901.3877
199.604	-9326.92032
199.827	-1655.23653
200.049	-953.76728
200.271	-906.00446
200.493	-2214.11551
200.715	-968.08242
200.938	-773.64498
201.16	-1274.10988
201.382	-2575.56702
201.604	-1308.63355
201.826	-1261.65642
202.048	-553.5231
202.27	-820.52708
202.492	-1978.93878
202.715	-1968.46584
202.937	-2260.22444
203.159	-1231.86273
203.381	-1611.82225
203.603	-1306.13929
203.825	4341.89913
204.047	-1126.95794
204.269	-3133.27265
204.491	-1569.64536
204.713	-790.11505
204.935	-1252.16334
205.156	-1296.68515
205.378	-3932.013
205.6	-930.14383
205.822	-1115.63701
206.044	2535.47673
206.266	-1272.54261
206.488	-794.61936
206.71	-1912.62628
206.932	-2348.80953
207.153	-1181.88459
207.375	-904.89431
207.597	-1094.16988
207.819	-869.38338
208.041	-1337.99672
208.262	-945.86068
208.484	-1857.88438
208.706	-855.46309
208.927	-806.47615
209.149	-2165.73836
209.371	-783.90823
209.593	-722.12812
209.814	-601.14861
210.036	-766.49838
210.258	-557.44123
210.479	-1343.15891
210.701	11322.38643
210.922	-853.53774
211.144	-939.75187
211.366	-1949.21212
211.587	10927.25551
211.809	-986.81178
212.03	-3309.55787
212.252	1668.92984
212.473	-1075.13223
212.695	-4487.33814
212.916	-3024.86133
213.138	-5858.54968
213.359	-970.63299
213.581	-1574.17491
213.802	-962.2701
214.024	-1365.96263
214.245	-10961.1691
214.466	-716.53324
214.688	-1305.56763
214.909	-1533.60018
215.131	-1990.73947
215.352	-930.76436
215.573	-1222.96362
215.795	-3103.54026
216.016	-1105.1392
216.237	-4652.6298
216.459	-13759.27291
216.68	-1639.13268
216.901	-1442.70491
217.122	-3471.78296
217.344	-1241.0291
217.565	-1579.81296
217.786	-1428.41106
218.007	-1351.909
218.228	-4622.44234
218.45	-1162.34168
218.671	-1353.56812
218.892	-1741.69595
219.113	-2289.57979
219.334	-152.67815
219.555	-1326.87511
219.776	-849.48718
219.997	-1375.59612
220.219	-2648.8841
220.44	-1050.13472
220.661	-863.41546
220.882	-1001.23013
221.103	-3187.83586
221.324	5683.57784
221.545	-1875.1735
221.766	-1305.13139
221.987	-2192.42672
222.208	-2968.31886
222.429	-924.97538
222.65	-1633.38272
222.87	5079.64877
223.091	-8642.49376
223.312	4114.75893
223.533	-1693.81496
223.754	-1672.15106
223.975	-2416.26005
224.196	160546.83293
224.417	-10052.78309
224.637	2305.57543
224.858	245.8107
225.079	-7415.58375
225.3	2472.51074
225.521	-877.14779
225.741	8383.13719
225.962	6732.22653
226.183	261.132
226.404	8951.01873
226.624	1798.16795
226.845	7868.81348
227.066	1749.3955
227.286	719.82646
227.507	248.74226
227.728	272.43793
227.948	498.75081
228.169	136.23987
228.389	147.12123
228.61	84.57627
228.831	115.52728
229.051	9.60541
229.272	71.09252
229.492	104.81068
229.713	26.97632
229.933	69.76352
230.154	65.40771
230.374	105.45448
230.595	73.61729
230.815	48.03972
231.036	80.2474
231.256	-11.36759
231.477	119.66551
231.697	82.48594
231.917	82.12832
232.138	115.18618
232.358	252.30945
232.579	206.07465
232.799	34.07066
233.019	197.67551
233.24	231.54308
233.46	73.5777
233.68	124.12633
233.901	82.48479
234.121	55.5911
234.341	21.42554
234.561	-6.15337
234.782	41.09284
235.002	132.81373
235.222	-2.85512
235.442	128.11777
235.662	59.14114
235.883	120.5242
236.103	93.35294
236.323	70.88903
236.543	50.97712
236.763	78.62612
236.983	75.47666
237.203	76.37324
237.423	118.07431
237.643	177.88073
237.864	151.05493
238.084	40.4607
238.304	50.11429
238.524	86.22567
238.744	76.03795
238.964	132.87208
239.184	114.44303
239.404	119.12495
239.624	62.35781
239.843	105.5052
240.063	60.59967
240.283	37.83507
240.503	43.21618
240.723	43.33009
240.943	28.14419
241.163	34.96346
241.383	23.61301
241.603	12.94229
241.822	14.84836
242.042	10.95222
242.262	13.80398
242.482	15.1131
242.702	17.01812
242.921	5.43186
243.141	11.33967
243.361	10.92468
243.581	15.92526
243.8	13.78687
244.02	8.82473
244.24	16.08169
244.459	14.68686
244.679	32.67254
244.899	20.30678
245.118	22.64041
245.338	21.13467
245.558	23.84401
245.777	13.39558
245.997	15.39209
246.216	16.05984
246.436	9.17856
246.655	6.49979
246.875	5.58566
247.094	10.26816
247.314	3.72844
247.533	6.41832
247.753	7.04703
247.972	5.59353
248.192	2.41572
248.411	3.52508
248.631	5.83621
248.85	7.62755
249.07	7.24409
249.289	10.64667
249.508	7.63479
249.728	12.76472
249.947	12.21986
250.166	15.92477
250.386	7.68821
250.605	10.69125
250.824	20.56636
251.044	13.40987
251.263	39.1613
251.482	22.94949
251.701	19.04384
251.921	0.21827
252.14	6.14696
252.359	7.07182
252.578	16.88155
252.798	6.23451
253.017	14.53165
253.236	7.34764
253.455	9.95915
253.674	20.11708
253.893	9.32107
254.112	14.22291
254.331	20.77897
254.551	16.18913
254.77	8.34618
254.989	24.07467
255.208	17.69411
255.427	27.05758
255.646	22.45895
255.865	33.66621
256.084	15.62007
256.303	18.36002
256.522	21.64551
256.741	5.08533
256.96	5.60508
257.179	13.23392
257.397	17.88203
257.616	9.4237
257.835	10.20836
258.054	23.92028
258.273	16.77204
258.492	17.0666
258.711	10.39173
258.93	4.75423
259.148	7.14184
259.367	6.74023
259.586	8.55486
259.805	3.97426
260.023	7.3993
260.242	5.49074
260.461	4.53415
260.68	2.0743
260.898	6.76025
261.117	2.36578
261.336	1.64897
261.554	5.6787
261.773	5.96643
261.992	1.46352
262.21	5.49935
262.429	6.64775
262.648	11.18401
262.866	13.53165
263.085	9.39955
263.303	7.93953
263.522	14.17665
263.74	13.92818
263.959	23.37985
264.178	12.38856
264.396	11.63863
264.615	7.72179
264.833	17.7402
265.051	15.48658
265.27	16.74105
265.488	16.85244
265.707	10.191
265.925	16.32758
266.144	8.20035
266.362	8.86814
266.58	9.57645
266.799	7.33385
267.017	9.54148
267.235	8.49501
267.454	5.72602
267.672	3.13026
267.89	7.14665
268.109	7.08532
268.327	7.41338
268.545	1.58218
268.763	6.7295
268.982	2.89197
269.2	7.49554
269.418	4.93191
269.636	3.86817
269.854	7.28051
270.073	5.05298
270.291	3.23951
270.509	3.04367
270.727	6.84469
270.945	11.16465
271.163	10.7174
271.381	2.56916
271.599	4.53248
271.817	7.8068
272.036	2.76095
272.254	5.335
272.472	3.92973
272.69	3.8012
272.908	4.04009
273.126	6.25922
273.344	7.9773
273.562	3.13221
273.779	4.47301
273.997	7.03507
274.215	6.21678
274.433	4.6145
274.651	7.10418
274.869	7.02733
275.087	4.34873
275.305	6.64915
275.523	4.13471
275.74	5.00682
275.958	8.31849
276.176	12.14732
276.394	4.00574
276.612	5.49602
276.829	5.24944
277.047	4.76216
277.265	5.00702
277.483	5.61851
277.7	6.27808
277.918	5.27653
278.136	9.64307
278.353	4.81297
278.571	2.87716
278.789	7.52085
279.006	1.6336
279.224	4.77649
279.442	7.63201
279.659	5.70341
279.877	3.47792
280.094	8.03028
280.312	1.84253
280.529	5.7824
280.747	2.01036
280.964	4.56093
281.182	8.47129
281.399	4.66394
281.617	5.41201
281.834	3.77926
282.052	2.90376
282.269	5.05358
282.487	3.95964
282.704	3.55689
282.921	3.48978
283.139	5.07173
283.356	6.32705
283.574	6.01009
283.791	2.96091
284.008	7.93763
284.226	4.62171
284.443	5.10512
284.66	6.13001
284.877	5.54473
285.095	3.53894
285.312	2.50576
285.529	1.65938
285.746	1.24149
285.964	3.27728
286.181	2.06296
286.398	3.02214
286.615	4.29759
286.832	4.0334
287.05	1.10432
287.267	2.92661
287.484	2.93117
287.701	4.18596
287.918	4.016
288.135	4.08434
288.352	1.76442
288.569	2.30938
288.786	3.91426
289.003	2.85256
289.22	4.60163
289.437	2.63853
289.654	4.37458
289.871	4.46297
290.088	4.4357
290.305	3.48307
290.522	2.87182
290.739	3.14702
290.956	4.66265
291.173	5.48163
291.39	5.28958
291.607	3.61236
291.824	2.74045
292.04	2.09726
292.257	4.57744
292.474	5.04138
292.691	3.1768
292.908	1.61651
293.125	2.66984
293.341	1.63959
293.558	7.55988
293.775	3.22289
293.992	3.19004
294.208	1.3013
294.425	1.96842
294.642	2.88882
294.858	4.66122
295.075	1.19593
295.292	3.01301
295.508	3.62209
295.725	5.10897
295.942	2.64921
296.158	1.84922
296.375	3.14368
296.591	2.45855
296.808	2.43903
297.024	2.94204
297.241	3.18797
297.458	3.37059
297.674	0.37379
297.891	2.7621
298.107	2.21228
298.323	1.69035
298.54	3.93148
298.756	2.0046
298.973	0.84732
299.189	4.195
299.406	1.98635
299.622	4.3146
299.838	4.39391
300.055	3.8768
300.271	0.90527
300.487	1.53704
300.704	1.81005
300.92	1.16745
301.136	5.64287
301.353	4.36994
301.569	3.01106
301.785	3.21769
302.001	3.83533
302.218	3.59849
302.434	3.60455
302.65	1.17613
302.866	2.28765
303.083	5.76783
303.299	5.60261
303.515	2.92289
303.731	3.11597
303.947	1.13965
304.163	1.95371
304.379	3.12201
304.595	3.43647
304.812	2.13376
305.028	1.76518
305.244	2.51115
305.46	4.01373
305.676	3.84735
305.892	4.73349
306.108	3.49032
306.324	2.47608
306.54	5.45077
306.756	3.73231
306.972	3.65175
307.187	2.5269
307.403	4.99384
307.619	2.39709
307.835	4.35546
308.051	4.64756
308.267	1.56009
308.483	4.18368
308.699	3.63058
308.914	2.8031
309.13	2.85556
309.346	0.75259
309.562	1.5484
309.778	0.82957
309.993	3.51369
310.209	2.74494
310.425	1.30148
310.641	2.38785
310.856	1.47463
311.072	1.37341
311.288	2.72009
311.503	2.81778
311.719	0.69811
311.935	0.46493
312.15	3.04962
312.366	2.75986
312.581	3.25283
312.797	2.59042
313.013	3.67131
313.228	1.94379
313.444	2.76615
313.659	1.67866
313.875	3.22016
314.09	2.60644
314.306	4.95271
314.521	3.8024
314.737	3.64342
314.952	3.1692
315.168	2.81084
315.383	3.34547
315.599	2.57573
315.814	2.37053
316.029	4.00846
316.245	1.19879
316.46	0.78913
316.675	4.55399
316.891	5.23764
317.106	6.6056
317.321	3.80043
317.537	3.43911
317.752	3.82263
317.967	4.06536
318.183	1.95491
318.398	2.49522
318.613	4.25127
318.828	4.71357
319.043	4.12019
319.259	2.5516
319.474	3.12996
319.689	4.34135
319.904	0.63965
320.119	3.99879
320.334	3.35003
320.549	2.68081
320.765	4.44505
320.98	3.44913
321.195	4.16215
321.41	2.8084
321.625	4.00124
321.84	5.31785
322.055	5.18361
322.27	2.03555
322.485	1.64325
322.7	3.2328
322.915	4.34399
323.13	1.7396
323.345	4.77255
323.56	3.62782
323.775	3.88912
323.989	3.65303
324.204	3.16671
324.419	3.8911
324.634	1.29083
324.849	2.85225
325.064	5.37195
325.279	4.13473
325.493	3.54281
325.708	4.27797
325.923	1.94429
326.138	2.07119
326.352	4.94747
326.567	3.93614
326.782	2.56396
326.997	1.98815
327.211	3.64941
327.426	3.64576
327.641	2.57667
327.855	0.90827
328.07	3.73756
328.285	5.05667
328.499	2.63696
328.714	3.45833
328.928	3.75984
329.143	2.94172
329.358	4.4827
329.572	4.18838
329.787	4.53618
330.001	6.3394
330.216	1.54043
330.43	5.03014
330.645	5.24588
330.859	4.08291
331.074	2.13276
331.288	3.22795
331.503	5.02688
331.717	1.69751
331.931	2.983
332.146	3.15769
332.36	5.4994
332.575	3.71122
332.789	3.32134
333.003	2.67146
333.218	3.53809
333.432	2.09696
333.646	3.81753
333.86	4.88741
334.075	5.24732
334.289	2.24131
334.503	1.68574
334.717	3.63247
334.932	3.51847
335.146	4.34277
335.36	2.42969
335.574	3.87873
335.788	3.65213
336.003	4.23937
336.217	4.29374
336.431	3.7561
336.645	2.457
336.859	1.60463
337.073	2.84463
337.287	3.17544
337.501	1.74578
337.715	3.2543
337.929	3.61564
338.143	1.552
338.357	2.75585
338.571	1.89487
338.785	3.60332
338.999	2.32389
339.213	2.22637
339.427	1.34603
339.641	4.33841
339.855	2.59517
340.069	2.11936
340.283	4.16833
340.497	4.93679
340.711	3.39822
340.924	2.43323
341.138	1.83571
341.352	1.26832
341.566	3.06354
341.78	0.871
341.993	2.20034
342.207	1.68881
342.421	3.19099
342.635	2.66098
342.848	2.13731
343.062	0.2574
343.276	2.15532
343.49	5.35835
343.703	2.12977
343.917	3.81962
344.131	3.70576
344.344	1.91382
344.558	2.2074
344.771	1.74512
344.985	4.0309
345.199	4.61304
345.412	3.05874
345.626	3.02003
345.839	0.84219
346.053	1.52843
346.266	1.67198
346.48	3.45773
346.693	3.04708
346.907	3.09328
347.12	1.67066
347.334	2.96182
347.547	3.11197
347.76	2.20569
347.974	4.04425
348.187	3.14194
348.401	2.41885
348.614	1.82671
348.827	2.33619
349.041	3.21607
349.254	0.82405
349.467	2.53392
349.681	1.4709
349.894	2.06834
350.107	4.02511
350.32	4.60531
350.534	0.91894
350.747	2.23996
350.96	1.57003
351.173	1.83699
351.386	2.12644
351.6	2.08531
351.813	1.84024
352.026	2.57166
352.239	1.18399
352.452	2.31918
352.665	3.62087
352.878	2.3595
353.092	4.92581
353.305	3.287
353.518	2.68417
353.731	1.60917
353.944	3.70311
354.157	1.88339
354.37	1.66263
354.583	1.45257
354.796	0.68854
355.009	3.90411
355.222	2.59143
355.435	2.64591
355.647	3.60701
355.86	1.31859
356.073	2.37899
356.286	1.92637
356.499	3.28701
356.712	2.77407
356.925	2.73768
357.138	3.4045
357.35	1.3081
357.563	1.99451
357.776	2.50005
357.989	1.99897
358.201	2.91011
358.414	2.47747
358.627	3.5379
358.84	1.95297
359.052	1.16476
359.265	1.07403
359.478	3.41305
359.69	-0.3163
359.903	3.07596
360.116	2.99732
360.328	0.58147
360.541	3.09152
360.753	1.18536
360.966	1.57029
361.179	1.67058
361.391	1.58313
361.604	1.09606
361.816	1.63057
362.029	1.38334
362.241	1.13411
362.454	1.47139
362.666	1.26454
362.879	2.07296
363.091	1.65925
363.304	1.23711
363.516	1.96359
363.728	0.94027
363.941	2.63297
364.153	1.43303
364.366	-0.11269
364.578	0.9581
364.79	2.57127
365.003	1.87973
365.215	1.65989
365.427	2.49379
365.639	3.36031
365.852	2.32195
366.064	3.85432
366.276	1.42475
366.488	2.54316
366.701	1.62856
366.913	1.8608
367.125	1.92936
367.337	1.35529
367.549	1.55197
367.762	2.17611
367.974	2.0828
368.186	1.33703
368.398	3.20359
368.61	2.66341
368.822	2.82696
369.034	2.01814
369.246	2.60882
369.458	4.37816
369.67	1.04428
369.882	3.88622
370.094	0.20247
370.306	3.5924
370.518	1.66239
370.73	1.4857
370.942	1.26613
371.154	1.71271
371.366	1.50826
371.578	2.25199
371.79	1.25146
372.002	3.26842
372.214	3.81908
372.425	2.19616
372.637	3.23756
372.849	2.39812
373.061	-0.10119
373.273	2.54308
373.484	2.49129
373.696	2.84323
373.908	-0.12791
374.12	3.04166
374.331	2.364
374.543	1.28406
374.755	1.10965
374.967	2.19876
375.178	2.89456
375.39	1.77593
375.602	2.10087
375.813	0.7349
376.025	0.65621
376.236	1.77761
376.448	2.11438
376.66	1.45703
376.871	1.33212
377.083	2.74028
377.294	2.79409
377.506	1.34023
377.717	3.21977
377.929	2.01626
378.14	1.08707
378.352	2.44541
378.563	2.21263
378.775	3.0969
378.986	1.29581
379.197	2.08419
379.409	1.55179
379.62	2.6333
379.832	2.06836
380.043	1.67432
380.254	2.10235
380.466	0.69503
380.677	4.49529
380.888	4.07603
381.1	4.4195
381.311	4.10654
381.522	1.73911
381.733	4.76307
381.945	1.73417
382.156	2.12349
382.367	1.43119
382.578	4.46164
382.789	4.34859
383.001	1.44075
383.212	3.114
383.423	3.32858
383.634	2.95984
383.845	2.17372
384.056	1.44075
384.267	1.73961
384.478	1.74505
384.69	0.8187
384.901	2.33462
385.112	2.23701
385.323	3.27346
385.534	2.24727
385.745	2.00531
385.956	2.35975
386.167	0.90793
386.378	2.4185
386.588	0.59275
386.799	1.21647
387.01	0.26476
387.221	2.65815
387.432	1.68656
387.643	3.64299
387.854	1.62577
388.065	1.5681
388.275	1.66013
388.486	1.56621
388.697	1.68377
388.908	1.54799
389.119	2.95916
389.329	3.43383
389.54	1.87279
389.751	2.03325
389.962	3.1029
390.172	2.09349
390.383	1.23612
390.594	1.25043
390.804	1.18567
391.015	1.17775
391.226	1.79461
391.436	2.32832
391.647	2.08273
391.858	2.35998
392.068	0.27591
392.279	0.61696
392.489	1.74204
392.7	2.83072
392.91	0.74321
393.121	1.1842
393.331	2.13262
393.542	2.75692
393.752	2.16393
393.963	1.7872
394.173	1.67029
394.384	2.36876
394.594	1.69176
394.804	0.74808
395.015	1.90587
395.225	2.34491
395.436	0.71669
395.646	2.29834
395.856	0.91632
396.067	0.71801
396.277	2.76713
396.487	2.14449
396.697	1.81512
396.908	2.44719
397.118	2.54549
397.328	1.89217
397.538	2.72217
397.749	1.23528
397.959	2.66137
398.169	2.48405
398.379	0.65773
398.589	2.57983
398.8	1.8059
399.01	1.64048
399.22	1.55723
399.43	3.88277
399.64	1.42222
399.85	2.3438
400.06	1.61762
400.27	1.29241
400.48	1.77941
400.69	3.18388
400.9	1.37693
401.11	1.18055
401.32	2.68324
401.53	1.43962
401.74	3.35678
401.95	2.52816
402.16	0.86501
402.37	2.33662
402.58	1.30439
402.79	2.4814
403	2.73143
403.209	1.38213
403.419	2.46561
403.629	1.40956
403.839	2.44815
404.049	2.57108
404.258	1.02776
404.468	0.89394
404.678	2.3331
404.888	2.30153
405.097	0.87988
405.307	1.75443
405.517	2.18091
405.727	1.91171
405.936	1.47306
406.146	1.88829
406.356	3.02428
406.565	1.76627
406.775	1.37012
406.984	1.43463
407.194	3.19998
407.404	1.9614
407.613	2.19798
407.823	2.54998
408.032	2.94519
408.242	2.80776
408.451	1.52451
408.661	1.73903
408.87	3.56586
409.08	1.57974
409.289	2.28583
409.499	2.02908
409.708	2.01819
409.918	0.32427
410.127	1.83316
410.336	3.31133
410.546	2.49246
410.755	1.67992
410.964	1.51611
411.174	1.40479
411.383	2.39255
411.592	2.34467
411.802	1.12449
412.011	2.94045
412.22	2.01693
412.429	3.28575
412.639	3.01684
412.848	3.25647
413.057	3.4712
413.266	3.12646
413.475	1.97796
413.685	2.84542
413.894	2.78575
414.103	3.14575
414.312	2.70207
414.521	2.07395
414.73	2.30097
414.939	3.63226
415.148	2.57185
415.357	2.24945
415.566	1.67931
415.776	1.7144
415.985	1.50691
416.194	2.60321
416.403	3.25246
416.611	0.88991
416.82	1.45235
417.029	1.87814
417.238	1.26817
417.447	1.02644
417.656	1.2908
417.865	1.13059
418.074	1.24962
418.283	1.5113
418.492	2.07254
418.7	1.98564
418.909	2.48977
419.118	1.57456
419.327	1.75702
419.536	1.56586
419.744	0.96236
419.953	2.02414
420.162	2.02944
420.371	0.92213
420.579	0.72112
420.788	1.77123
420.997	1.70975
421.205	1.82016
421.414	1.42539
421.623	1.29932
421.831	1.03276
422.04	1.9205
422.249	1.02888
422.457	1.66861
422.666	1.06286
422.874	2.05739
423.083	1.99148
423.291	1.87791
423.5	1.47501
423.708	1.6957
423.917	2.02337
424.125	1.54903
424.334	1.22445
424.542	3.08497
424.751	2.24362
424.959	2.1507
425.167	2.28166
425.376	2.31239
425.584	1.61439
425.793	2.01547
426.001	1.23449
426.209	2.31378
426.418	1.27576
426.626	1.59896
426.834	1.35817
427.042	1.94519
427.251	1.46316
427.459	2.64995
427.667	2.24699
427.875	1.23898
428.084	1.7123
428.292	2.98858
428.5	2.37053
428.708	1.46205
428.916	1.36682
429.124	2.14783
429.333	1.85782
429.541	1.78335
429.749	2.07316
429.957	1.92829
430.165	3.67604
430.373	1.25598
430.581	2.30295
430.789	3.06957
430.997	1.79196
431.205	1.7153
431.413	2.04658
431.621	1.81021
431.829	2.48233
432.037	1.64247
432.245	2.06935
432.453	2.09589
432.661	1.62672
432.869	3.29035
433.076	1.14317
433.284	1.83644
433.492	2.22903
433.7	2.78487
433.908	1.45162
434.116	1.92754
434.323	1.94305
434.531	1.93075
434.739	2.24768
434.947	2.69923
435.154	2.41419
435.362	2.22364
435.57	1.86433
435.778	1.81766
435.985	2.31831
436.193	1.83496
436.401	2.87744
436.608	2.16636
436.816	1.79994
437.023	3.39867
437.231	3.26193
437.439	2.27524
437.646	2.45479
437.854	2.38561
438.061	2.53247
438.269	1.87839
438.476	2.46089
438.684	2.12773
438.891	1.68185
439.099	1.37147
439.306	0.89617
439.514	1.22117
439.721	1.98325
439.929	1.46126
440.136	2.16741
440.343	1.95525
440.551	1.57765
440.758	2.98794
440.965	2.2217
441.173	1.94546
441.38	1.42589
441.587	2.11103
441.795	1.54116
442.002	2.18835
442.209	2.33223
442.416	2.56794
442.624	2.45405
442.831	2.46434
443.038	1.71579
443.245	1.44917
443.452	1.7421
443.66	2.77043
443.867	1.48489
444.074	1.81569
444.281	1.61313
444.488	1.83547
444.695	1.85085
444.902	1.52748
445.109	2.19336
445.316	1.62374
445.523	1.39216
445.73	1.25136
445.937	1.90781
446.144	2.22958
446.351	2.00251
446.558	1.3389
446.765	2.43936
446.972	2.5501
447.179	1.66525
447.386	2.80986
447.593	1.60907
447.8	2.61305
448.007	1.69602
448.214	2.03041
448.42	1.60185
448.627	2.77613
448.834	1.85902
449.041	1.91779
449.248	2.02491
449.454	2.86478
449.661	3.5401
449.868	2.09874
450.075	1.85499
450.281	0.81818
450.488	1.46239
450.695	1.89686
450.901	1.64613
451.108	2.12125
451.315	2.9468
451.521	2.18394
451.728	2.86499
451.935	1.80545
452.141	2.07636
452.348	2.2366
452.554	2.11701
452.761	1.96813
452.967	3.29708
453.174	2.30465
453.38	2.46937
453.587	1.49437
453.793	2.34138
454	2.99147
454.206	3.75146
454.413	3.3702
454.619	2.56401
454.825	1.85044
455.032	2.80066
455.238	3.08135
455.445	1.49846
455.651	2.50936
455.857	1.02174
456.064	2.18078
456.27	2.07711
456.476	2.2902
456.682	1.34771
456.889	2.68654
457.095	2.71594
457.301	4.03919
457.507	2.39093
457.714	2.38816
457.92	2.17517
458.126	1.64524
458.332	1.93185
458.538	1.69755
458.744	1.63227
458.951	1.57037
459.157	2.76635
459.363	1.97223
459.569	1.70375
459.775	2.38032
459.981	1.36277
460.187	1.79654
460.393	2.32287
460.599	2.76319
460.805	2.02936
461.011	2.1158
461.217	2.94971
461.423	3.04933
461.629	2.07763
461.835	2.84261
462.041	2.20763
462.247	3.62694
462.453	2.39772
462.658	2.54389
462.864	2.97962
463.07	2.73213
463.276	2.8155
463.482	2.76829
463.688	3.27522
463.893	2.26468
464.099	2.24553
464.305	3.79464
464.511	2.15332
464.716	2.61895
464.922	2.90111
465.128	2.13392
465.333	3.88638
465.539	2.86257
465.745	2.23543
465.95	2.90793
466.156	4.48498
466.362	3.486
466.567	2.40156
466.773	2.18764
466.978	3.7484
467.184	1.97086
467.389	1.06976
467.595	3.03438
467.8	1.88395
468.006	3.4224
468.211	3.41104
468.417	1.97591
468.622	3.08746
468.828	3.24243
469.033	2.76982
469.239	4.80449
469.444	2.23376
469.649	3.41894
469.855	2.45932
470.06	2.72802
470.266	1.89871
470.471	3.13075
470.676	2.93563
470.881	1.57259
471.087	3.46493
471.292	3.80201
471.497	1.7877
471.703	2.42126
471.908	2.22599
472.113	2.82573
472.318	3.26601
472.523	1.93051
472.729	2.98585
472.934	3.00067
473.139	2.39832
473.344	3.17771
473.549	3.5692
473.754	2.11179
473.959	4.13061
474.164	2.09247
474.369	2.75664
474.575	3.47211
474.78	2.85779
474.985	2.44862
475.19	1.58275
475.395	2.13181
475.6	2.61109
475.804	3.65294
476.009	2.53717
476.214	2.67217
476.419	2.27344
476.624	1.34493
476.829	1.97754
477.034	2.8182
477.239	1.87225
477.444	2.68547
477.648	2.77273
477.853	3.01717
478.058	2.22638
478.263	2.03109
478.468	1.60439
478.672	1.70759
478.877	3.14965
479.082	3.7639
479.287	2.64552
479.491	2.5426
479.696	1.61488
479.901	3.18112
480.105	2.85347
480.31	2.02975
480.515	2.21072
480.719	3.86203
480.924	1.78104
481.128	1.40079
481.333	2.2222
481.538	2.27825
481.742	1.672
481.947	2.03237
482.151	2.23763
482.356	1.94425
482.56	2.56381
482.765	2.39139
482.969	2.9398
483.174	3.44697
483.378	4.15188
483.582	3.73749
483.787	4.39319
483.991	4.23936
484.196	4.30231
484.4	4.1828
484.604	4.6192
484.809	3.67792
485.013	3.88802
485.217	3.36212
485.422	3.02341
485.626	2.81017
485.83	2.63288
486.034	2.59137
486.239	2.67356
486.443	2.60401
486.647	2.34726
486.851	3.07351
487.055	3.34757
487.26	2.62826
487.464	3.08534
487.668	2.55637
487.872	2.38034
488.076	3.08176
488.28	2.71268
488.484	2.53507
488.688	2.61191
488.892	2.91886
489.096	2.78674
489.3	2.27775
489.504	2.30302
489.708	2.66949
489.912	2.59887
490.116	2.47857
490.32	1.73784
490.524	2.48249
490.728	2.40403
490.932	2.29165
491.136	2.04681
491.34	2.90429
491.544	2.98881
491.748	2.54111
491.951	2.6534
492.155	2.44523
492.359	2.75551
492.563	1.96156
492.767	1.87302
492.97	2.04844
493.174	1.68255
493.378	1.98448
493.582	1.62779
493.785	2.17773
493.989	2.39829
494.193	2.46089
494.396	2.10358
494.6	2.97299
494.804	2.34863
495.007	1.99649
495.211	1.82939
495.414	2.29573
495.618	2.34409
495.822	2.99608
496.025	2.21641
496.229	2.81174
496.432	1.55715
496.636	2.14522
496.839	1.97173
497.043	3.26033
497.246	2.29706
497.45	1.89019
497.653	1.94489
497.856	2.33537
498.06	1.32412
498.263	1.9223
498.467	1.63733
498.67	2.95752
498.873	2.48966
499.077	2.00054
499.28	1.92641
499.483	2.52388
499.686	2.76636
499.89	2.81092
500.093	2.88757
500.296	1.93033
500.499	3.29731
500.703	2.36708
500.906	2.43719
501.109	3.78585
501.312	2.56978
501.515	2.23533
501.719	2.64155
501.922	3.57442
502.125	2.67239
502.328	2.36179
502.531	1.67296
502.734	2.51946
502.937	1.11198
503.14	2.45024
503.343	1.55035
503.546	2.05542
503.749	1.87406
503.952	2.71597
504.155	1.69993
504.358	2.7526
504.561	2.27922
504.764	1.56321
504.967	2.27319
505.17	2.45044
505.373	3.5046
505.576	2.49898
505.778	2.88303
505.981	2.13112
506.184	3.27587
506.387	1.47162
506.59	3.62703
506.793	3.2266
506.995	2.7439
507.198	1.14196
507.401	2.37915
507.604	2.63745
507.806	1.53277
508.009	1.76762
508.212	2.52559
508.414	1.84148
508.617	1.65722
508.82	2.05374
509.022	2.7862
509.225	2.33841
509.427	1.06791
509.63	2.97875
509.833	2.15761
510.035	2.0361
510.238	1.10045
510.44	2.93956
510.643	0.7179
510.845	3.85395
511.048	2.51816
511.25	1.97654
511.453	2.13788
511.655	2.49461
511.858	1.87408
512.06	2.70564
512.262	2.13342
512.465	2.67815
512.667	1.62558
512.869	1.55699
513.072	2.444
513.274	2.87816
513.476	2.56956
513.679	2.75168
513.881	1.45733
514.083	3.57234
514.286	1.79678
514.488	1.99138
514.69	1.74321
514.892	1.61474
515.094	2.5006
515.297	2.00929
515.499	2.4164
515.701	1.77515
515.903	3.3787
516.105	3.24899
516.307	2.77534
516.509	0.98253
516.711	1.32448
516.913	2.23683
517.116	1.93621
517.318	1.77323
517.52	2.73651
517.722	2.22741
517.924	1.02141
518.126	2.0404
518.328	1.23902
518.529	2.09967
518.731	2.79592
518.933	1.35561
519.135	1.66981
519.337	2.46902
519.539	2.07566
519.741	0.85184
519.943	1.95906
520.145	1.90898
520.346	2.24794
520.548	1.78866
520.75	2.38078
520.952	1.81588
521.153	2.20797
521.355	2.63589
521.557	1.49249
521.759	2.46902
521.96	2.30799
522.162	1.62007
522.364	2.89157
522.565	1.68763
522.767	2.73835
522.969	3.3192
523.17	2.41392
523.372	2.65044
523.573	1.49717
523.775	2.01971
523.977	1.46152
524.178	3.17896
524.38	1.54016
524.581	2.37228
524.783	1.6251
524.984	2.17076
525.186	1.70937
525.387	2.12417
525.589	1.66777
525.79	1.4528
525.991	1.11767
526.193	1.84352
526.394	0.70787
526.596	1.75997
526.797	1.47117
526.998	1.33152
527.2	0.65044
527.401	1.91996
527.602	1.55501
527.803	2.60388
528.005	1.8945
528.206	2.26691
528.407	2.34123
528.608	1.94709
528.81	1.92703
529.011	1.40872
529.212	2.44643
529.413	1.97176
529.614	1.85826
529.815	2.17054
530.017	2.04223
530.218	1.92858
530.419	1.48733
530.62	1.70499
530.821	1.78493
531.022	1.03843
531.223	2.06083
531.424	2.09191
531.625	1.826
531.826	1.77317
532.027	1.62787
532.228	2.32497
532.429	1.66724
532.63	1.53918
532.831	1.62358
533.032	1.83624
533.233	2.07586
533.433	1.87028
533.634	2.04427
533.835	1.52607
534.036	1.31045
534.237	1.66511
534.438	1.40954
534.638	1.12311
534.839	1.26804
535.04	2.05501
535.241	1.50159
535.441	2.55181
535.642	1.91217
535.843	1.08251
536.043	1.0384
536.244	1.30551
536.445	1.36498
536.645	2.18051
536.846	1.5213
537.047	2.39916
537.247	1.22187
537.448	1.6489
537.648	1.80017
537.849	1.92153
538.049	1.83846
538.25	2.6592
538.451	2.17134
538.651	1.64983
538.851	2.40684
539.052	2.82414
539.252	2.51556
539.453	2.0373
539.653	1.76931
539.854	1.94049
540.054	1.51426
540.254	2.16292
540.455	2.09615
540.655	1.27478
540.855	1.78692
541.056	2.04811
541.256	1.48567
541.456	2.42637
541.657	1.40503
541.857	2.46502
542.057	1.13392
542.257	1.31309
542.458	2.03041
542.658	2.28226
542.858	1.08005
543.058	2.32973
543.258	1.98893
543.458	1.10527
543.659	0.94229
543.859	2.23527
544.059	2.07232
544.259	1.78947
544.459	2.41668
544.659	1.5432
544.859	2.33694
545.059	1.63586
545.259	2.26857
545.459	2.14254
545.659	2.54004
545.859	2.01588
546.059	2.17169
546.259	1.37742
546.459	0.82212
546.659	1.29169
546.859	2.22978
547.059	2.17809
547.258	2.40937
547.458	2.24113
547.658	1.26239
547.858	1.55732
548.058	2.41876
548.258	2.241
548.457	1.74001
548.657	4.58827
548.857	2.27167
549.057	3.24274
549.256	2.96637
549.456	2.57936
549.656	1.31119
549.855	4.33517
550.055	2.71702
550.255	4.25372
550.454	3.25428
550.654	3.77245
550.853	3.96832
551.053	3.81191
551.253	3.07637
551.452	3.08923
551.652	1.76246
551.851	1.17674
552.051	2.37433
552.25	2.27639
552.45	2.02619
552.649	2.38716
552.849	1.84491
553.048	2.68255
553.248	3.02256
553.447	2.04725
553.646	3.36323
553.846	4.07421
554.045	3.72274
554.244	2.07234
554.444	4.49554
554.643	2.17828
554.842	4.15196
555.042	4.86633
555.241	2.66074
555.44	2.38703
555.64	3.12815
555.839	4.50182
556.038	3.64195
556.237	2.6168
556.436	2.87092
556.636	3.51552
556.835	2.32028
557.034	4.45878
557.233	3.11689
557.432	2.20632
557.631	4.0448
557.83	2.99309
558.029	2.66076
558.228	2.94715
558.427	2.30983
558.626	3.53672
558.825	2.63747
559.024	3.59355
559.223	4.86156
559.422	3.17153
559.621	3.72053
559.82	0.9967
560.019	3.38081
560.218	2.83772
560.417	0.59731
560.616	3.01442
560.815	6.15426
561.014	1.81845
561.212	3.99162
561.411	3.32444
561.61	1.59493
561.809	2.9999
562.008	4.71259
562.206	3.17
562.405	3.75295
562.604	3.04706
562.803	3.33474
563.001	3.18322
563.2	1.86491
563.399	3.64307
563.597	2.05308
563.796	3.46406
563.995	1.97334
564.193	3.75601
564.392	2.64064
564.59	5.12843
564.789	1.20785
564.988	2.7414
565.186	3.09561
565.385	2.61682
565.583	2.45255
565.782	2.68481
565.98	2.4238
566.179	2.65701
566.377	1.54778
566.575	1.96428
566.774	3.70243
566.972	3.59615
567.171	4.67267
567.369	4.08931
567.567	2.91601
567.766	3.32663
567.964	1.18024
568.162	3.79235
568.361	4.01383
568.559	3.13046
568.757	3.60571
568.956	3.4407
569.154	2.96389
569.352	4.1453
569.55	3.05037
569.748	3.04527
569.947	2.35612
570.145	2.41099
570.343	1.99438
570.541	4.16068
570.739	1.67778
570.937	3.11566
571.135	3.27223
571.333	4.44861
571.532	4.2813
571.73	3.16362
571.928	3.75277
572.126	3.35649
572.324	2.47393
572.522	4.12716
572.72	5.25551
572.918	3.00099
573.116	3.231
573.313	3.09682
573.511	2.76146
573.709	2.92093
573.907	3.47186
574.105	2.7412
574.303	1.5232
574.501	1.7616
574.699	3.23064
574.896	3.24595
575.094	3.63477
575.292	2.07269
575.49	3.88495
575.688	3.0013
575.885	4.60062
576.083	4.94359
576.281	3.65234
576.478	2.94629
576.676	3.9382
576.874	2.4642
577.071	3.22734
577.269	5.85865
577.467	3.05235
577.664	3.74271
577.862	4.36092
578.059	3.03217
578.257	4.59989
578.455	3.61349
578.652	3.73144
578.85	2.07604
579.047	3.97816
579.245	3.80585
579.442	3.85351
579.64	4.19806
579.837	1.8805
580.034	6.16825
580.232	3.70341
580.429	2.90598
580.627	4.67124
580.824	5.54179
581.021	4.63383
581.219	3.74909
581.416	3.11446
581.613	5.44307
581.811	5.4383
582.008	3.32238
582.205	5.13532
582.402	4.40997
582.6	6.66417
582.797	4.46793
582.994	5.10812
583.191	5.11211
583.388	4.48046
583.586	5.02238
583.783	5.88043
583.98	3.41111
584.177	4.6548
584.374	1.17735
584.571	4.11779
584.768	4.1501
584.965	4.13832
585.162	5.31704
585.359	6.35472
585.556	4.37257
585.753	4.87434
585.95	3.01166
586.147	3.68312
586.344	5.04312
586.541	4.0306
586.738	3.3138
586.935	4.3077
587.132	3.66302
587.329	5.8812
587.526	4.2287
587.722	10.11881
587.919	2.70051
588.116	4.64771
588.313	6.1444
588.51	6.92769
588.706	4.15338
588.903	5.00378
589.1	5.6628
589.297	7.86847
589.493	4.2999
589.69	5.11236
589.887	3.7997
590.083	2.9711
590.28	3.29357
590.477	5.66916
590.673	5.24434
590.87	5.83335
591.067	4.00446
591.263	5.33361
591.46	5.09844
591.656	4.53133
591.853	6.42556
592.049	3.5054
592.246	4.02216
592.442	6.19253
592.639	5.3457
592.835	2.97552
593.032	5.26772
593.228	3.00246
593.425	2.92711
593.621	3.01431
593.817	4.56758
594.014	3.63278
594.21	4.59857
594.406	5.55839
594.603	4.82727
594.799	3.89226
594.995	1.62464
595.192	5.67123
595.388	3.7176
595.584	3.5837
595.78	2.54564
595.977	6.54973
596.173	6.15542
596.369	3.87371
596.565	3.06363
596.761	2.31198
596.957	5.41842
597.154	2.96524
597.35	3.38113
597.546	3.054
597.742	4.60492
597.938	4.4961
598.134	3.20673
598.33	4.4635
598.526	6.50798
598.722	5.27138
598.918	6.97602
599.114	5.49015
599.31	3.80066
599.506	5.28852
599.702	4.00058
599.898	5.52136
600.094	6.41959
600.29	6.04105
600.485	5.91392
600.681	4.54381
600.877	7.05809
601.073	5.28132
601.269	7.53174
601.465	6.7594
601.66	3.8445
601.856	2.95356
602.052	6.74271
602.248	4.14763
602.443	2.12146
602.639	2.97895
602.835	3.29415
603.03	3.41862
603.226	5.3147
603.422	3.09258
603.617	3.86402
603.813	3.50958
604.009	3.24972
604.204	5.23209
604.4	2.12539
604.595	5.00915
604.791	2.84962
604.986	4.21717
605.182	3.10211
605.377	3.52459
605.573	3.66625
605.768	4.40984
605.964	5.2218
606.159	5.35401
606.355	6.37071
606.55	4.5028
606.746	6.17784
606.941	5.0511
607.136	7.54578
607.332	8.72556
607.527	3.44968
607.722	5.58899
607.918	4.90674
608.113	3.73277
608.308	5.41428
608.503	5.24479
608.699	5.01474
608.894	5.15138
609.089	3.45401
609.284	4.69118
609.479	3.81357
609.675	5.25888
609.87	4.08542
610.065	5.10479
610.26	5.83926
610.455	5.90268
610.65	4.53215
610.845	5.12417
611.04	6.33315
611.235	4.96396
611.43	4.56872
611.625	3.37139
611.82	7.21539
612.015	4.11693
612.21	7.67047
612.405	3.29109
612.6	8.52639
612.795	7.42216
612.99	6.9894
613.185	4.17504
613.38	4.41606
613.575	6.09607
613.77	9.60266
613.965	3.67688
614.159	4.43375
614.354	7.73183
614.549	7.26545
614.744	6.66674
614.938	4.40929
615.133	3.79633
615.328	7.66361
615.523	7.98306
615.717	10.28879
615.912	5.36456
616.107	6.04115
616.301	5.20087
616.496	4.79127
616.691	8.72089
616.885	6.97972
617.08	9.8534
617.274	8.05251
617.469	9.63278
617.664	7.28105
617.858	5.25643
618.053	6.29771
618.247	5.46564
618.442	2.699
618.636	7.84922
618.831	5.1958
619.025	5.51354
619.219	10.2718
619.414	1.0681
619.608	6.33628
619.803	4.78877
619.997	9.57083
620.191	8.22564
620.386	7.17037
620.58	6.51902
620.774	3.51846
620.969	3.89147
621.163	6.55314
621.357	4.34701
621.551	5.73704
621.746	6.45905
621.94	6.31752
622.134	12.3847
622.328	9.7715
622.522	4.10762
622.716	8.34899
622.911	7.8025
623.105	7.6415
623.299	6.86136
623.493	11.94569
623.687	5.19567
623.881	5.87057
624.075	7.81399
624.269	8.28986
624.463	3.59046
624.657	3.71044
624.851	7.4011
625.045	8.04751
625.239	7.78448
625.433	4.7979
625.627	8.7465
625.821	5.14759
626.015	4.72645
626.209	6.09772
626.403	3.83423
626.596	6.45719
626.79	6.98737
626.984	3.87089
627.178	6.46481
627.372	6.68513
627.565	7.3245
627.759	3.71771
627.953	3.97626
628.147	6.85175
628.34	7.27568
628.534	9.68
628.728	6.04693
628.921	8.24364
629.115	7.78945
629.309	8.10852
629.502	8.22401
629.696	7.10505
629.89	6.46037
630.083	6.92945
630.277	7.48202
630.47	10.11787
630.664	6.44579
630.857	4.57256
631.051	8.04773
631.244	8.91568
631.438	8.81552
631.631	5.74264
631.825	9.1685
632.018	8.35007
632.212	10.53793
632.405	9.07843
632.598	5.81214
632.792	7.09523
632.985	2.68395
633.178	6.04604
633.372	6.68385
633.565	7.00944
633.758	9.3563
633.952	5.39617
634.145	5.67058
634.338	6.90185
634.531	5.99138
634.724	5.80259
634.918	7.4595
635.111	6.71056
635.304	6.26499
635.497	11.17695
635.69	7.60261
635.883	9.24967
636.077	4.7375
636.27	8.36401
636.463	7.60071
636.656	8.37652
636.849	6.28277
637.042	8.04397
637.235	10.83176
637.428	8.85932
637.621	8.2089
637.814	10.39751
638.007	10.9733
638.2	11.04489
638.393	11.59236
638.586	5.43865
638.778	6.85307
638.971	8.07219
639.164	11.54745
639.357	8.98652
639.55	10.77397
639.743	9.52299
639.935	9.78651
640.128	12.08104
640.321	9.51889
640.514	8.60732
640.707	13.82096
640.899	9.68165
641.092	5.07437
641.285	23.64333
641.477	3.62838
641.67	13.29111
641.863	10.9129
642.055	9.03814
642.248	8.93516
642.441	7.8255
642.633	9.58367
642.826	11.09196
643.018	11.51531
643.211	12.57791
643.403	12.34891
643.596	13.58849
643.788	13.25962
643.981	7.93303
644.173	10.62871
644.366	8.37987
644.558	5.44385
644.751	11.18406
644.943	5.68078
645.135	13.27684
645.328	13.35272
645.52	11.16545
645.712	11.45599
645.905	16.96788
646.097	6.8592
646.289	10.34142
646.482	13.42604
646.674	7.86591
646.866	11.61729
647.058	10.75919
647.251	6.68509
647.443	7.98833
647.635	8.96541
647.827	6.9711
648.019	6.46242
648.211	9.83845
648.404	9.71974
648.596	13.00748
648.788	10.0938
648.98	10.19272
649.172	10.46129
649.364	10.06362
649.556	5.02882
649.748	15.40675
649.94	7.1035
650.132	10.92618
650.324	7.52666
650.516	7.62914
650.708	12.55252
650.9	6.18488
651.092	8.70178
651.284	5.58444
651.476	6.73959
651.667	10.77208
651.859	12.24185
652.051	9.45899
652.243	9.85438
652.435	7.95698
652.627	10.51168
652.818	10.73591
653.01	5.82633
653.202	7.52308
653.394	9.42764
653.585	11.22653
653.777	20.74814
653.969	13.26154
654.16	12.95838
654.352	7.73499
654.544	9.85892
654.735	13.14226
654.927	10.09843
655.118	14.04993
655.31	12.25674
655.502	12.04303
655.693	8.56723
655.885	11.51679
656.076	14.20547
656.268	10.41703
656.459	13.43748
656.651	13.47628
656.842	8.21026
657.034	8.05196
657.225	11.84851
657.416	13.5377
657.608	13.27453
657.799	9.30779
657.99	12.17827
658.182	7.21018
658.373	7.80743
658.564	10.95726
658.756	9.21547
658.947	8.73055
659.138	6.55487
659.33	7.58766
659.521	6.97391
659.712	8.58995
659.903	8.50183
660.094	7.53379
660.286	5.44648
660.477	14.44767
660.668	11.46781
660.859	9.97319
661.05	6.47028
661.241	11.71498
661.432	11.40867
661.623	9.40263
661.814	8.42128
662.006	5.55645
662.197	11.37564
662.388	13.6801
662.579	11.30425
662.77	15.21207
662.96	18.53914
663.151	13.49534
663.342	5.98851
663.533	12.03216
663.724	10.68836
663.915	15.44565
664.106	10.77184
664.297	16.22176
664.488	13.24012
664.678	10.32257
664.869	12.90694
665.06	14.56415
665.251	12.42399
665.442	13.06284
665.632	8.42499
665.823	16.96131
666.014	3.31555
666.204	12.78595
666.395	15.40953
666.586	19.9262
666.776	14.20861
666.967	16.53002
667.158	11.83481
667.348	16.58382
667.539	8.00373
667.729	14.24307
667.92	9.16976
668.111	14.85008
668.301	13.39048
668.492	10.06277
668.682	11.2295
668.873	10.62751
669.063	8.02756
669.253	11.50931
669.444	13.9864
669.634	11.44758
669.825	17.31353
670.015	14.74316
670.206	9.76498
670.396	18.67097
670.586	11.31033
670.777	13.74732
670.967	5.71059
671.157	11.84495
671.347	10.42427
671.538	16.93392
671.728	13.5479
671.918	18.07905
672.108	15.73654
672.299	12.03821
672.489	13.39297
672.679	10.46469
672.869	13.57359
673.059	17.64527
673.249	14.37049
673.44	9.94166
673.63	11.64822
673.82	15.38455
674.01	10.0664
674.2	14.15103
674.39	22.20717
674.58	14.28348
674.77	13.34041
674.96	12.6392
675.15	26.53942
675.34	16.38255
675.53	12.86058
675.72	11.40087
675.91	7.98031
676.099	18.45504
676.289	20.08207
676.479	16.23386
676.669	11.93737
676.859	14.92365
677.049	9.69725
677.238	13.4047
677.428	18.74976
677.618	13.65466
677.808	15.54546
677.997	14.43102
678.187	9.13464
678.377	12.23167
678.567	10.92711
678.756	10.89235
678.946	11.73183
679.136	7.92145
679.325	9.57724
679.515	9.32944
679.704	7.44472
679.894	13.47186
680.084	12.2521
680.273	15.56234
680.463	8.69103
680.652	8.83105
680.842	11.52327
681.031	14.75112
681.221	9.02909
681.41	14.17462
681.6	11.78615
681.789	14.93315
681.978	16.56488
682.168	13.09757
682.357	14.05771
682.547	14.78682
682.736	13.24897
682.925	17.16173
683.115	16.64216
683.304	16.00149
683.493	14.66573
683.682	15.36833
683.872	14.65212
684.061	18.7423
684.25	16.30913
684.439	20.73064
684.629	16.26652
684.818	26.22331
685.007	13.65652
685.196	13.30366
685.385	19.49938
685.574	16.0974
685.763	15.6565
685.952	14.82563
686.142	9.78683
686.331	19.43515
686.52	8.13008
686.709	20.22509
686.898	20.42851
687.087	17.16001
687.276	21.03199
687.465	18.00202
687.654	13.32353
687.842	20.42883
688.031	9.39526
688.22	19.47636
688.409	15.38933
688.598	15.47587
688.787	24.65116
688.976	15.25179
689.165	21.48152
689.353	13.29479
689.542	17.37565
689.731	17.96957
689.92	22.69013
690.108	19.52724
690.297	14.12797
690.486	16.17975
690.675	18.95909
690.863	22.91406
691.052	22.74373
691.241	17.77704
691.429	17.27577
691.618	21.78887
691.806	12.01269
691.995	15.2375
692.184	16.73803
692.372	13.56485
692.561	16.28519
692.749	16.9601
692.938	26.02674
693.126	19.50431
693.315	15.0492
693.503	18.45821
693.692	19.07568
693.88	21.34449
694.068	26.47527
694.257	16.60637
694.445	18.4765
694.634	8.48737
694.822	22.45825
695.01	22.84998
695.199	22.80441
695.387	24.29458
695.575	22.77109
695.763	17.38778
695.952	15.56296
696.14	10.96926
696.328	14.19923
696.516	17.54738
696.705	17.4563
696.893	17.27372
697.081	9.35246
697.269	18.12438
697.457	11.64985
697.645	10.0394
697.833	18.23356
698.021	11.64162
698.21	12.03342
698.398	13.50351
698.586	9.71898
698.774	9.16644
698.962	12.77125
699.15	9.84017
699.338	8.53049
699.526	15.71072
699.714	11.81727
699.901	12.9892
700.089	18.33534
700.277	12.45493
700.465	14.54637
700.653	19.07265
700.841	18.72343
701.029	13.50112
701.217	21.75235
701.404	17.98996
701.592	23.63869
701.78	25.49464
701.968	16.1801
702.155	16.75226
702.343	12.34698
702.531	24.15845
702.718	20.38658
702.906	17.32965
703.094	15.79539
703.281	24.07493
703.469	17.35547
703.657	23.502
703.844	34.92222
704.032	26.66091
704.219	15.82556
704.407	21.12441
704.595	25.30531
704.782	19.57388
704.97	17.43238
705.157	17.28134
705.345	27.79081
705.532	32.82881
705.719	21.45824
705.907	26.62452
706.094	19.45149
706.282	28.21323
706.469	17.95027
706.656	20.75466
706.844	19.34348
707.031	24.55422
707.218	21.01891
707.406	28.5047
707.593	23.97269
707.78	23.56344
707.968	18.95104
708.155	15.38885
708.342	23.50749
708.529	23.1177
708.716	20.70831
708.904	28.93651
709.091	23.47907
709.278	15.17505
709.465	29.66926
709.652	30.1294
709.839	26.73951
710.026	21.6932
710.213	11.78059
710.4	22.22805
710.587	25.4321
710.774	26.62711
710.961	26.72147
711.148	21.58923
711.335	27.21268
711.522	20.54935
711.709	22.03868
711.896	32.3639
712.083	26.32234
712.27	16.53413
712.457	22.38485
712.644	13.96106
712.831	32.89497
713.017	22.70757
713.204	25.56224
713.391	18.23648
713.578	29.52884
713.765	29.14986
713.951	24.68668
714.138	40.71602
714.325	26.59769
714.512	22.6221
714.698	18.65369
714.885	32.00554
715.072	24.37798
715.258	23.42251
715.445	19.7958
715.631	30.37583
715.818	9.46185
716.005	19.3318
716.191	25.92156
716.378	21.33142
716.564	27.98645
716.751	18.65357
716.937	20.23202
717.124	30.60517
717.31	19.93173
717.497	32.57328
717.683	20.04793
717.869	39.6747
718.056	22.06371
718.242	28.2936
718.429	24.73206
718.615	18.05054
718.801	25.37444
718.988	31.23637
719.174	27.50913
719.36	25.08534
719.547	33.73074
719.733	27.61707
719.919	27.90011
720.105	30.79717
720.291	26.05202
720.478	27.01435
720.664	24.66126
720.85	23.10846
721.036	44.92638
721.222	35.36372
721.408	25.01668
721.595	40.35317
721.781	37.49954
721.967	33.02453
722.153	38.06314
722.339	31.34859
722.525	30.21871
722.711	19.76105
722.897	18.60313
723.083	25.05224
723.269	34.50865
723.455	44.07642
723.641	46.96806
723.827	28.69898
724.012	31.13736
724.198	25.23944
724.384	36.43693
724.57	31.1071
724.756	16.96263
724.942	15.14297
725.127	34.48724
725.313	38.98423
725.499	38.5717
725.685	40.36363
725.87	31.71004
726.056	22.14785
726.242	36.45108
726.428	16.77539
726.613	34.2582
726.799	26.4076
726.985	20.66864
727.17	18.11214
727.356	38.46243
727.541	22.2692
727.727	26.32926
727.913	32.74097
728.098	23.71897
728.284	32.93567
728.469	18.97976
728.655	22.02042
728.84	32.8609
729.026	34.27111
729.211	36.08742
729.397	29.63932
729.582	32.81225
729.767	27.38578
729.953	30.35896
730.138	34.52845
730.323	13.5059
730.509	19.9692
730.694	39.1827
730.879	30.83713
731.065	29.4971
731.25	44.33516
731.435	32.49239
731.621	17.77613
731.806	24.2583
731.991	30.79419
732.176	17.28494
732.361	37.01186
732.547	28.79523
732.732	17.05189
732.917	44.92876
733.102	20.1817
733.287	23.76117
733.472	28.60614
733.657	30.26016
733.842	19.27094
734.027	26.83152
734.212	27.41142
734.397	23.68906
734.582	29.83056
734.767	36.08087
734.952	40.49426
735.137	11.07865
735.322	40.69978
735.507	33.07545
735.692	33.11508
735.877	47.54499
736.062	43.89254
736.247	32.72723
736.431	30.58411
736.616	40.2767
736.801	32.97488
736.986	31.25879
737.171	23.58657
737.355	21.37879
737.54	39.76193
737.725	29.60087
737.909	53.88483
738.094	25.6753
738.279	37.78756
738.463	29.08392
738.648	35.78352
738.833	32.74994
739.017	45.13783
739.202	28.03535
739.386	31.29754
739.571	24.17562
739.756	35.82131
739.94	31.84965
740.125	39.63873
740.309	25.23342
740.494	38.01328
740.678	33.00355
740.863	36.09873
741.047	34.23689
741.231	41.73714
741.416	24.40437
741.6	46.23596
741.785	25.98201
741.969	38.37015
742.153	42.90724
742.338	14.44976
742.522	32.62441
742.706	39.30114
742.89	22.53478
743.075	33.44686
743.259	44.30969
743.443	39.25752
743.627	44.98724
743.812	53.3595
743.996	19.91108
744.18	33.34137
744.364	28.34329
744.548	58.28367
744.732	32.5426
744.916	40.95551
745.1	37.18903
745.285	31.69446
745.469	38.58504
745.653	49.1803
745.837	21.33012
746.021	58.18039
746.205	47.08517
746.389	36.21004
746.573	30.48446
746.757	49.48327
746.94	29.59303
747.124	44.92098
747.308	23.7218
747.492	46.00693
747.676	28.27821
747.86	57.5438
748.044	29.92588
748.227	18.3968
748.411	69.77698
748.595	37.26034
748.779	25.60074
748.963	39.48423
749.146	35.28251
749.33	26.92562
749.514	25.16723
749.697	46.63481
749.881	28.51314
750.065	25.19639
750.248	34.55693
750.432	59.02436
750.616	33.99583
750.799	23.03905
750.983	54.80263
751.166	64.7671
751.35	21.31264
751.533	42.39701
751.717	45.72373
751.9	51.9445
752.084	30.56655
752.267	25.43528
752.451	28.72415
752.634	36.11484
752.818	40.52171
753.001	47.62083
753.184	46.49918
753.368	39.79318
753.551	8.13689
753.734	27.99332
753.918	55.62607
754.101	29.68813
754.284	41.92412
754.467	30.8472
754.651	30.06681
754.834	28.67991
755.017	47.91152
755.2	45.70637
755.384	24.88113
755.567	44.08624
755.75	48.32663
755.933	32.08795
756.116	38.76393
756.299	30.90327
756.482	25.98242
756.665	42.33042
756.848	34.51822
757.032	39.28618
757.215	22.80821
757.398	27.87878
757.581	27.28364
757.764	65.86326
757.947	35.33709
758.129	48.39032
758.312	10.36515
758.495	36.8479
758.678	35.00158
758.861	33.1543
759.044	55.33855
759.227	30.01417
759.41	28.25513
759.592	41.30503
759.775	34.85308
759.958	45.89906
760.141	24.0151
760.324	60.19054
760.506	52.0134
760.689	44.9843
760.872	62.2569
761.054	39.85025
761.237	32.48734
761.42	40.02827
761.602	45.33621
761.785	39.50973
761.968	45.9087
762.15	53.97865
762.333	32.7429
762.515	39.2783
762.698	28.18163
762.88	40.57522
763.063	36.85775
763.245	40.33828
763.428	24.32732
763.61	26.64207
763.793	20.44201
763.975	34.76806
764.158	27.88231
764.34	27.04278
764.522	22.43575
764.705	28.8544
764.887	44.77686
765.069	19.97445
765.252	41.78689
765.434	42.05457
765.616	34.96785
765.799	30.15673
765.981	43.75752
766.163	28.03881
766.345	45.16608
766.528	29.84706
766.71	13.72798
766.892	38.06466
767.074	50.60489
767.256	33.95645
767.438	57.49921
767.62	41.37927
767.802	64.49378
767.985	44.79804
768.167	61.8168
768.349	30.90686
768.531	45.52869
768.713	43.46165
768.895	48.62959
769.077	45.5946
769.259	70.50152
769.441	108.6321
769.623	54.43946
769.804	60.93431
769.986	60.67731
770.168	73.99452
770.35	88.42662
770.532	63.6897
770.714	70.61248
770.896	71.52897
771.077	30.09057
771.259	72.74181
771.441	61.51449
771.623	77.79066
771.804	100.24476
771.986	29.00598
772.168	45.61979
772.35	75.57816
772.531	101.90053
772.713	61.26627
772.894	85.37455
773.076	57.48219
773.258	48.7897
773.439	75.71027
773.621	90.43138
773.802	39.21934
773.984	51.57766
774.166	64.54083
774.347	90.4492
774.529	76.44924
774.71	25.79786
774.891	58.50762
775.073	52.61046
775.254	90.74422
775.436	49.5949
775.617	97.0041
775.799	51.08298
775.98	88.13122
776.161	95.3535
776.343	93.512
776.524	59.35915
776.705	52.78447
776.886	28.47256
777.068	65.11698
777.249	115.05226
777.43	102.98528
777.611	38.16233
777.793	52.71008
777.974	91.37913
778.155	50.95174
778.336	43.00712
778.517	104.89636
778.698	45.93934
778.879	26.76587
779.061	15.27409
779.242	69.79393
779.423	68.67219
779.604	48.79542
779.785	58.09582
779.966	64.27756
780.147	79.60213
780.328	82.03182
780.509	119.37085
780.69	71.98197
780.871	47.43947
781.051	33.27971
781.232	66.23284
781.413	61.79596
781.594	56.75407
781.775	49.27458
781.956	47.27454
782.137	28.24128
782.317	47.65524
782.498	66.50664
782.679	59.54624
782.86	62.52396
783.04	48.41115
783.221	67.17025
783.402	100.81799
783.583	62.62174
783.763	74.99854
783.944	51.41769
784.124	34.34538
784.305	94.18329
784.486	73.22571
784.666	59.79507
784.847	28.99726
785.027	116.95857
785.208	47.03674
785.388	40.94416
785.569	47.86087
785.749	53.80159
785.93	49.28936
786.11	31.50311
786.291	70.78191
786.471	65.02046
786.652	79.63151
786.832	60.78178
787.012	66.15755
787.193	38.85235
787.373	62.5191
787.553	52.59971
787.734	64.19387
787.914	50.44319
788.094	67.30626
788.275	65.72509
788.455	51.94226
788.635	37.68536
788.815	60.84258
788.995	40.71732
789.176	31.7298
789.356	45.99255
789.536	54.71092
789.716	71.34083
789.896	46.4556
790.076	49.78248
790.256	63.36627
790.436	20.25994
790.616	44.31971
790.796	64.89581
790.976	51.94258
791.156	44.47973
791.336	76.69784
791.516	66.96895
791.696	53.45096
791.876	33.92442
792.056	61.63578
792.236	77.59914
792.416	74.86804
792.596	69.0892
792.776	68.18945
792.956	71.81922
793.135	94.45609
793.315	42.47164
793.495	83.7977
793.675	75.3867
793.854	75.2204
794.034	79.55183
794.214	38.97763
794.394	74.87784
794.573	81.2453
794.753	63.67613
794.933	44.1738
795.112	62.8519
795.292	76.76516
795.472	99.2635
795.651	35.71717
795.831	58.17923
796.01	52.58921
796.19	53.56074
796.369	56.71579
796.549	68.16137
796.728	54.78462
796.908	35.15415
797.087	38.88607
797.267	50.63247
797.446	37.36359
797.626	68.52715
797.805	68.11725
797.984	42.82099
798.164	72.03189
798.343	42.28793
798.522	64.31945
798.702	60.1973
798.881	36.86774
799.06	54.62531
799.239	24.25466
799.419	44.08296
799.598	91.25322
799.777	69.81591
799.956	83.76708
800.136	51.2387
800.315	48.58609
800.494	67.52462
800.673	83.58227
800.852	72.0054
801.031	81.91512
801.21	71.24609
801.389	52.05678
801.568	65.22323
801.747	102.88398
801.926	63.92769
802.105	94.1979
802.284	53.48498
802.463	93.77376
802.642	65.24555
802.821	64.56783
803	88.81218
803.179	81.28643
803.358	90.37825
803.537	50.04821
803.716	61.69235
803.895	51.10774
804.073	57.8346
804.252	48.62447
804.431	71.52109
804.61	58.92853
804.789	83.63781
804.967	51.88339
805.146	46.35925
805.325	102.63635
805.503	71.06255
805.682	33.27729
805.861	122.42429
806.039	86.64358
806.218	47.20854
806.397	66.75725
806.575	59.71445
806.754	66.82106
806.932	43.82887
807.111	96.90756
807.289	77.41792
807.468	64.31916
807.646	85.11234
807.825	72.33693
808.003	65.46987
808.182	82.67394
808.36	62.91502
808.539	45.1548
808.717	95.64053
808.895	44.58825
809.074	71.27964
809.252	61.30395
809.43	79.6332
809.609	89.51598
809.787	98.12807
809.965	60.012
810.144	63.59193
810.322	57.86686
810.5	72.39604
810.678	60.721
810.856	116.31485
811.035	93.042
811.213	83.75249
811.391	92.42528
811.569	68.95535
811.747	139.08065
811.925	92.2893
812.103	45.78606
812.281	64.93822
812.459	109.09347
812.637	110.81619
812.816	85.94918
812.994	112.3254
813.171	94.89384
813.349	74.68907
813.527	98.12686
813.705	102.84558
813.883	125.69636
814.061	94.39385
814.239	118.09205
814.417	123.28398
814.595	73.29542
814.773	74.41868
814.95	69.85926
815.128	79.531
815.306	71.86469
815.484	65.8404
815.662	50.39091
815.839	45.93015
816.017	55.6586
816.195	97.07935
816.372	61.71776
816.55	85.05245
816.728	105.78493
816.905	64.30134
817.083	110.45256
817.261	64.85493
817.438	120.52698
817.616	113.76961
817.793	54.99805
817.971	91.59497
818.148	86.05068
818.326	103.11428
818.503	73.04521
818.681	100.50311
818.858	58.05561
819.036	65.69183
819.213	68.42813
819.391	48.90824
819.568	50.26298
819.745	44.37315
819.923	79.26259
820.1	51.96341
820.277	46.36577
820.455	55.25418
820.632	55.78835
820.809	56.22301
820.986	35.63825
821.164	28.38494
821.341	23.26048
821.518	32.70123
821.695	22.31853
821.872	20.73106
822.05	17.35794
822.227	12.1682
822.404	13.14968
822.581	16.56418
822.758	12.73175
822.935	13.08438
823.112	15.92098
823.289	11.45511
823.466	16.34114
823.643	14.6632
823.82	19.43469
823.997	17.45924
824.174	22.16635
824.351	31.7903
824.528	30.68937
824.705	27.90285
824.882	31.61261
825.059	41.80224
825.236	27.17072
825.412	30.60308
825.589	39.10154
825.766	53.6912
825.943	32.96414
826.12	39.92735
826.296	24.61876
826.473	31.76882
826.65	31.78084
826.827	41.53017
827.003	25.93604
827.18	28.38411
827.357	32.88682
827.533	29.21709
827.71	14.61647
827.887	24.41406
828.063	29.61555
828.24	25.01681
828.416	36.7252
828.593	29.50109
828.769	44.03616
828.946	51.41275
829.122	53.54938
829.299	49.31891
829.475	27.81546
829.652	52.21835
829.828	90.00231
830.005	54.38022
830.181	75.85217
830.357	51.40865
830.534	77.58318
830.71	58.93099
830.886	77.18258
831.063	77.52887
831.239	99.10697
831.415	40.43211
831.592	99.4016
831.768	58.98766
831.944	49.6907
832.12	94.14256
832.296	85.2381
832.473	77.31439
832.649	53.42886
832.825	70.0976
833.001	38.80957
833.177	62.24124
833.353	54.61491
833.529	29.06253
833.705	43.31812
833.881	30.76528
834.058	30.98549
834.234	32.5285
834.41	32.85514
834.586	25.44044
834.761	33.23951
834.937	36.44051
835.113	39.64552
835.289	35.12242
835.465	43.98781
835.641	37.24338
835.817	44.1238
835.993	84.86776
836.169	39.27649
836.344	61.12204
836.52	68.78039
836.696	69.9761
836.872	50.47103
837.048	140.77648
837.223	58.21668
837.399	118.28576
837.575	92.25747
837.75	85.83935
837.926	117.22001
838.102	196.316
838.277	142.14422
838.453	185.36257
838.628	186.75092
838.804	75.02089
838.98	179.9432
839.155	79.14939
839.331	115.50751
839.506	78.18854
839.682	78.10316
839.857	103.54151
840.033	118.5932
840.208	55.12989
840.384	28.76149
840.559	60.26402
840.734	90.87669
840.91	137.4942
841.085	79.62841
841.26	84.71453
841.436	75.48638
841.611	73.21696
841.786	110.96952
841.962	154.79578
842.137	92.02772
842.312	53.72754
842.487	84.1291
842.663	67.94571
842.838	74.20777
843.013	269.90832
843.188	133.70988
843.363	119.65629
843.538	236.14512
843.714	234.39713
843.889	245.98919
844.064	250.2718
844.239	213.67088
844.414	260.90042
844.589	161.58643
844.764	323.49645
844.939	288.14754
845.114	362.12292
845.289	363.26088
845.464	379.29799
845.639	294.7215
845.814	150.5459
845.989	173.4076
846.163	190.84723
846.338	225.32083
846.513	345.35671
846.688	196.52376
846.863	204.6188
847.038	171.13942
847.212	215.07232
847.387	248.72267
847.562	252.59524
847.737	287.51642
847.911	106.57743
848.086	133.27327
848.261	458.71732
848.435	182.97185
848.61	291.96754
848.785	135.68588
848.959	307.1882
849.134	432.46844
849.308	513.67033
849.483	221.97954
849.658	349.88637
849.832	180.43877
850.007	143.28335
850.181	624.73778
850.356	166.62215
850.53	505.11176
850.705	125.48821
850.879	80.35739
851.053	198.48315
851.228	185.05169
851.402	294.71496
851.577	321.50628
851.751	416.92391
851.925	236.85173
852.099	105.84768
852.274	151.42791
852.448	196.97857
852.622	307.20651
852.797	213.48797
852.971	249.99913
853.145	236.89573
853.319	642.42542
853.493	348.02231
853.668	193.6219
853.842	428.33115
854.016	338.45497
854.19	384.46738
854.364	229.91437
854.538	248.26942
854.712	331.85961
854.886	210.80014
855.06	190.72113
855.234	71.80613
855.408	435.56535
855.582	343.71383
855.756	360.80127
855.93	442.27122
856.104	229.38351
856.278	343.83514
856.452	203.32417
856.626	302.06581
856.8	534.75392
856.973	287.32223
857.147	278.1413
857.321	278.86662
857.495	336.5195
857.669	238.83932
857.842	197.90135
858.016	330.76233
858.19	150.29077
858.364	824.15094
858.537	186.44219
858.711	232.07587
858.885	218.49535
859.058	201.38897
859.232	100.34094
859.405	117.09307
859.579	348.78835
859.753	281.66725
859.926	158.1592
860.1	101.76616
860.273	229.19735
860.447	441.81977
860.62	218.00833
860.794	463.37064
860.967	262.73445
861.141	357.96399
861.314	663.76131
861.487	285.4335
861.661	391.59648
861.834	515.74967
862.008	346.54152
862.181	232.34895
862.354	234.6133
862.528	307.85014
862.701	187.60556
862.874	129.82052
863.047	200.54859
863.221	188.66572
863.394	101.04533
863.567	363.29102
863.74	80.34451
863.913	353.32189
864.087	288.48106
864.26	324.74973
864.433	189.72306
864.606	538.16766
864.779	222.25239
864.952	107.82724
865.125	182.2599
865.298	229.01092
865.471	228.39968
865.644	492.06074
865.817	365.04376
865.99	323.48588
866.163	457.57735
866.336	182.12931
866.509	229.03484
866.682	177.84868
866.855	404.74327
867.028	137.10306
867.2	271.10346
867.373	85.47595
867.546	216.3435
867.719	580.33983
867.892	276.7158
868.064	143.54617
868.237	261.47256
868.41	241.668
868.583	139.88543
868.755	135.94723
868.928	202.73289
869.101	580.49918
869.273	340.50273
869.446	282.81448
869.619	381.59249
869.791	209.16394
869.964	359.2105
870.136	342.48961
870.309	247.30418
870.481	237.01285
870.654	106.81103
870.826	266.23636
870.999	172.43685
871.171	272.55604
871.344	173.76753
871.516	207.45234
871.689	134.46226
871.861	225.80742
872.033	161.10943
872.206	183.36517
872.378	328.40379
872.55	186.00405
872.723	122.24533
872.895	188.69931
873.067	335.55144
873.24	331.83113
873.412	182.74788
873.584	199.38198
873.756	194.51523
873.928	238.30257
874.101	245.27406
874.273	277.80918
874.445	91.04759
874.617	126.97778
874.789	226.60579
874.961	187.1605
875.133	261.84565
875.305	207.7892
875.477	137.94439
875.649	103.2412
875.821	141.31196
875.993	387.3041
876.165	139.03308
876.337	225.52761
876.509	213.92411
876.681	243.2907
876.853	225.66049
877.025	239.90985
877.197	139.0462
877.369	124.92055
877.541	283.53811
877.712	68.0036
877.884	127.55445
878.056	251.33035
878.228	144.45988
878.4	247.32774
878.571	122.0099
878.743	88.71813
878.915	188.58993
879.086	117.6195
879.258	150.01232
879.43	127.74404
879.601	107.74671
879.773	116.89821
879.945	27.97967
880.116	43.74378
880.288	27.55235
880.459	29.69772
880.631	22.21997
880.802	27.09853
880.974	24.38578
881.145	15.61586
881.317	22.73972
881.488	15.69991
881.66	18.40316
881.831	15.89136
882.002	23.91783
882.174	15.81148
882.345	22.46796
882.517	10.55521
882.688	30.33641
882.859	23.12111
883.03	40.05151
883.202	41.08693
883.373	33.67326
883.544	33.57489
883.715	59.00215
883.887	51.55285
884.058	42.97789
884.229	64.36841
884.4	63.7134
884.571	77.40508
884.742	62.37317
884.914	64.90048
885.085	98.62033
885.256	133.14752
885.427	102.01412
885.598	133.18349
885.769	130.11595
885.94	131.97066
886.111	86.54716
886.282	155.34579
886.453	115.10762
886.624	98.45006
886.795	164.94434
886.966	129.34624
887.136	180.76049
887.307	138.85738
887.478	254.13591
887.649	187.21148
887.82	225.16412
887.991	163.64834
888.161	240.65743
888.332	220.18595
888.503	108.63966
888.674	309.44972
888.844	385.49784
889.015	277.45778
889.186	116.54526
889.356	334.56576
889.527	104.49078
889.698	568.3898
889.868	169.71517
890.039	241.57855
890.209	204.6387
890.38	267.9474
890.551	238.86149
890.721	316.76826
890.892	282.52916
891.062	185.84156
891.233	248.13507
891.403	169.16924
891.574	132.53717
891.744	184.38092
891.914	212.17577
892.085	218.60782
892.255	64.41743
892.425	363.61424
892.596	212.33588
892.766	231.4806
892.936	294.59113
893.107	252.75487
893.277	135.56168
893.447	99.62695
893.618	70.13262
893.788	153.5293
893.958	79.73517
894.128	74.78879
894.298	88.79997
894.468	119.49486
894.639	51.21886
894.809	35.87189
894.979	58.84528
895.149	67.74589
895.319	54.49448
895.489	81.84093
895.659	107.12706
895.829	69.80297
895.999	71.62659
896.169	60.64968
896.339	73.19965
896.509	161.98085
896.679	183.1746
896.849	181.2175
897.019	261.73112
897.189	201.3536
897.358	173.37378
897.528	253.60003
897.698	86.37343
897.868	231.03186
898.038	452.60082
898.208	463.94571
898.377	101.14752
898.547	445.71745
898.717	651.69472
898.886	235.90005
899.056	413.23867
899.226	652.96714
899.395	329.02442
899.565	550.31125
899.735	312.80084
899.904	522.44683
900.074	569.17592
900.244	177.56599
900.413	800.43493
900.583	146.38575
900.752	283.39272
900.922	750.0404
901.091	32.42489
901.261	438.37206
901.43	392.17164
901.599	346.96507
901.769	1372.41252
901.938	542.25981
902.108	434.16376
902.277	761.62411
902.446	130.16067
902.616	153.41578
902.785	191.54249
902.954	384.99501
903.124	244.0615
903.293	183.00281
903.462	91.28449
903.631	134.35003
903.801	101.11028
903.97	49.49294
904.139	84.34365
904.308	67.74941
904.477	52.33092
904.646	33.30709
904.816	48.44948
904.985	79.325
905.154	127.68239
