Data from L_lucida_1.1_window_Transmission__0__14-39-45-002.txt Node

Date: Sat May 03 14:39:45 EDT 2025
User: jessi
Spectrometer: SR400872
Trigger mode: 0
Integration Time (sec): 5.000000E-1
Scans to average: 6
Electric dark correction enabled: true
Nonlinearity correction enabled: true
Boxcar width: 0
XAxis mode: Wavelengths
Number of Pixels in Spectrum: 3648
>>>>>Begin Spectral Data<<<<<
184.909	-15343.53447
185.132	2555.21284
185.355	-2022.20225
185.578	13119.69569
185.801	-135.56077
186.024	11582.36377
186.247	616.30674
186.47	-1172.22243
186.693	109.02506
186.916	-1824.74152
187.139	5997.65612
187.362	1641.19707
187.585	14420.66731
187.808	2911.43301
188.031	46.1369
188.254	5362.57275
188.476	-27718.2034
188.699	1824.86318
188.922	2736.45577
189.145	3523.72081
189.368	-454.00053
189.591	1793.55217
189.813	-6787.72735
190.036	2749.40884
190.259	1225.11502
190.482	-11129.52389
190.705	-3694.84929
190.927	1475.75812
191.15	-13519.56829
191.373	21463.62729
191.595	-2775.79324
191.818	1993.98144
192.041	-233.82588
192.263	1070.29938
192.486	-312.56484
192.709	-7014.01756
192.931	12288.74504
193.154	6431.1149
193.377	-11063.16399
193.599	-1462.88469
193.822	-995.09216
194.044	1980.93967
194.267	1203.1986
194.489	-273.61957
194.712	1495.36749
194.934	97734.07664
195.157	1411.58974
195.379	816.49855
195.602	-4343.60942
195.824	1657.26327
196.047	-1042.56438
196.269	192435.23173
196.492	-2426.32882
196.714	4654.77074
196.936	4032.41551
197.159	2741.05746
197.381	5321.40805
197.604	252.34166
197.826	2360.66663
198.048	9758.00651
198.271	-19095.50171
198.493	2132.74414
198.715	2172.83773
198.938	-672.72644
199.16	2844.36371
199.382	1469.65299
199.604	-4168.41744
199.827	-5219.13263
200.049	-2392.64546
200.271	4149.45835
200.493	9469.11813
200.715	6126.6618
200.938	-10391.92984
201.16	-13568.99398
201.382	896.98952
201.604	-1129.03214
201.826	2457.93675
202.048	2804.29604
202.27	5185.96856
202.492	-2866.07077
202.715	-1345.97096
202.937	-2639.43708
203.159	1511.28626
203.381	1808.39717
203.603	24664.98853
203.825	2901.92539
204.047	-12360.67449
204.269	5824.73753
204.491	-890.75944
204.713	2059.53368
204.935	-19005.85017
205.156	-2285.1121
205.378	6550.43561
205.6	-1736.78716
205.822	2827.7863
206.044	-1093.72459
206.266	1087.13743
206.488	1028.70292
206.71	2421.89889
206.932	-3771.28343
207.153	-1600.49212
207.375	-9969.54949
207.597	18743.03656
207.819	2039.55874
208.041	2498.31559
208.262	1744.38836
208.484	-1049.37287
208.706	-1086.93837
208.927	5448.75871
209.149	893.7788
209.371	-2744.54927
209.593	-587.4349
209.814	-2114.37196
210.036	-827.90219
210.258	-4184.6052
210.479	-4551.86168
210.701	-4980.67376
210.922	5447.95333
211.144	-2593.92546
211.366	1293.0354
211.587	-23231.29939
211.809	-2056.12912
212.03	-1209.1005
212.252	517.48302
212.473	-4543.22872
212.695	1622.86287
212.916	-1605.69077
213.138	367.43313
213.359	-1220.25539
213.581	15076.87363
213.802	-345.85595
214.024	-2037.61418
214.245	-9037.07778
214.466	-138.26062
214.688	-2335.34322
214.909	-1623.15311
215.131	10560.37371
215.352	2566.92986
215.573	51057.98281
215.795	5110.98154
216.016	5971.09651
216.237	-816.16889
216.459	2476.87758
216.68	7111.56852
216.901	-4125.20871
217.122	5080.47951
217.344	1600.99721
217.565	-4872.87147
217.786	2256.49712
218.007	688.35216
218.228	928.44405
218.45	-2095.48886
218.671	2225.26102
218.892	2343.13523
219.113	1107.82492
219.334	-532.26775
219.555	6482.81251
219.776	4491.16621
219.997	1513.98234
220.219	877.5842
220.44	932.98773
220.661	1265.36001
220.882	5797.23294
221.103	3223.38242
221.324	1599.31166
221.545	72561.36425
221.766	-5421.47646
221.987	-707.42707
222.208	-2937.83121
222.429	5496.92498
222.65	-1482.0224
222.87	-2399.70268
223.091	3211.58854
223.312	-1853.42584
223.533	-4937.275
223.754	2045.98277
223.975	1412.04144
224.196	-3475.58346
224.417	78175.47008
224.637	3007.43803
224.858	101.69792
225.079	3000.09588
225.3	2419.278
225.521	4122.27152
225.741	2492.92935
225.962	830.09295
226.183	13204.73093
226.404	1359.21906
226.624	718.26397
226.845	848.38242
227.066	830.99645
227.286	504.17695
227.507	281.01989
227.728	203.31228
227.948	299.11918
228.169	87.65582
228.389	81.82984
228.61	50.52963
228.831	70.27044
229.051	5.7562
229.272	39.66735
229.492	57.55378
229.713	15.68886
229.933	42.42328
230.154	34.92374
230.374	57.11025
230.595	48.46121
230.815	33.80657
231.036	45.5061
231.256	-11.78503
231.477	92.18604
231.697	51.16877
231.917	56.01611
232.138	78.33718
232.358	182.95118
232.579	158.73015
232.799	15.4424
233.019	145.85126
233.24	161.86643
233.46	56.07656
233.68	95.25349
233.901	61.61842
234.121	42.54451
234.341	16.17811
234.561	-6.71444
234.782	29.47893
235.002	93.02559
235.222	-2.89772
235.442	80.10165
235.662	44.16523
235.883	88.83689
236.103	78.6685
236.323	65.17652
236.543	36.8164
236.763	56.37787
236.983	63.22785
237.203	68.80492
237.423	90.82088
237.643	134.43172
237.864	118.42752
238.084	30.2966
238.304	44.92373
238.524	73.93808
238.744	59.27069
238.964	100.14911
239.184	83.84708
239.404	92.93254
239.624	50.97674
239.843	87.37837
240.063	47.40684
240.283	30.75984
240.503	35.12453
240.723	30.18236
240.943	17.90845
241.163	24.34444
241.383	16.62876
241.603	9.02215
241.822	11.11318
242.042	8.22347
242.262	10.3747
242.482	11.05256
242.702	13.72191
242.921	4.15476
243.141	8.92435
243.361	8.23199
243.581	11.83457
243.8	10.96883
244.02	6.12757
244.24	13.92441
244.459	13.58524
244.679	24.58526
244.899	17.25352
245.118	18.62147
245.338	14.88838
245.558	18.55651
245.777	10.27739
245.997	12.85726
246.216	12.06455
246.436	7.00379
246.655	5.183
246.875	3.55489
247.094	7.53646
247.314	2.59532
247.533	4.38339
247.753	5.58141
247.972	4.37075
248.192	1.58402
248.411	2.62752
248.631	5.03002
248.85	6.50181
249.07	4.57871
249.289	8.54003
249.508	7.24694
249.728	10.79978
249.947	11.73908
250.166	12.20217
250.386	7.0875
250.605	9.29826
250.824	14.99454
251.044	10.2927
251.263	35.80088
251.482	17.67379
251.701	15.69818
251.921	-0.42555
252.14	4.74853
252.359	5.52971
252.578	13.96289
252.798	4.74195
253.017	12.56513
253.236	7.19743
253.455	8.64378
253.674	16.84847
253.893	8.75412
254.112	11.53744
254.331	16.87533
254.551	14.28091
254.77	6.58204
254.989	21.93607
255.208	19.81769
255.427	20.73024
255.646	20.35248
255.865	33.88146
256.084	12.24001
256.303	14.22206
256.522	20.23275
256.741	4.40647
256.96	4.33296
257.179	13.63952
257.397	15.03982
257.616	7.01615
257.835	8.87135
258.054	21.11932
258.273	12.64961
258.492	15.40524
258.711	8.12843
258.93	3.65234
259.148	5.80179
259.367	5.56463
259.586	6.94115
259.805	3.16082
260.023	6.70496
260.242	5.21431
260.461	3.49626
260.68	2.12464
260.898	6.46018
261.117	1.94987
261.336	1.55315
261.554	5.36008
261.773	5.30491
261.992	0.91403
262.21	5.48594
262.429	6.79702
262.648	10.74721
262.866	11.94789
263.085	7.26437
263.303	7.42422
263.522	13.60589
263.74	13.14238
263.959	21.57825
264.178	11.35597
264.396	9.53039
264.615	7.51918
264.833	17.31661
265.051	13.95151
265.27	14.3812
265.488	16.07085
265.707	9.87643
265.925	14.56163
266.144	6.58263
266.362	8.78084
266.58	8.82325
266.799	6.68584
267.017	8.8307
267.235	7.66041
267.454	4.89792
267.672	3.02973
267.89	6.23249
268.109	6.46121
268.327	6.18171
268.545	1.02672
268.763	5.92548
268.982	2.71053
269.2	8.02742
269.418	4.02942
269.636	3.15015
269.854	5.96943
270.073	4.99589
270.291	2.77099
270.509	2.79459
270.727	6.44787
270.945	11.06141
271.163	9.83797
271.381	2.23127
271.599	4.02208
271.817	7.63452
272.036	2.98595
272.254	4.69941
272.472	3.65037
272.69	3.61296
272.908	3.45802
273.126	6.72903
273.344	7.93138
273.562	2.8012
273.779	4.02116
273.997	5.42625
274.215	6.74817
274.433	4.83428
274.651	6.67233
274.869	7.09979
275.087	3.98211
275.305	6.67156
275.523	3.13855
275.74	4.34789
275.958	8.2294
276.176	12.01719
276.394	3.96987
276.612	4.53889
276.829	4.67423
277.047	3.97114
277.265	4.48402
277.483	5.19769
277.7	6.45452
277.918	5.59952
278.136	9.42588
278.353	4.54473
278.571	2.32339
278.789	7.58076
279.006	1.63937
279.224	4.37669
279.442	7.99576
279.659	5.19452
279.877	3.74819
280.094	7.8233
280.312	1.66082
280.529	5.10411
280.747	0.97542
280.964	4.08594
281.182	9.02421
281.399	4.43508
281.617	5.81041
281.834	4.01631
282.052	3.31814
282.269	4.64384
282.487	3.72785
282.704	2.89699
282.921	3.65584
283.139	5.11542
283.356	6.1919
283.574	5.31438
283.791	3.04108
284.008	7.6645
284.226	4.38691
284.443	4.43794
284.66	5.77521
284.877	4.84558
285.095	3.66692
285.312	2.37645
285.529	1.27433
285.746	1.3621
285.964	3.04935
286.181	2.04826
286.398	2.95918
286.615	3.80637
286.832	3.89972
287.05	1.26385
287.267	2.82036
287.484	3.24687
287.701	4.26827
287.918	3.80888
288.135	4.43381
288.352	1.75519
288.569	2.10385
288.786	3.65577
289.003	2.89683
289.22	3.96933
289.437	2.44195
289.654	4.38357
289.871	4.77703
290.088	4.332
290.305	3.27489
290.522	2.83034
290.739	3.27724
290.956	4.94163
291.173	5.81092
291.39	5.25463
291.607	3.51209
291.824	2.68484
292.04	1.8294
292.257	4.1794
292.474	4.98228
292.691	3.09038
292.908	1.48578
293.125	2.85477
293.341	1.6836
293.558	7.58439
293.775	3.17693
293.992	3.37086
294.208	1.49035
294.425	1.9124
294.642	2.66971
294.858	4.05329
295.075	0.78748
295.292	3.11731
295.508	3.68936
295.725	5.74997
295.942	3.02868
296.158	2.37012
296.375	3.71036
296.591	2.64108
296.808	3.38684
297.024	3.98608
297.241	4.2703
297.458	4.97538
297.674	1.85824
297.891	4.271
298.107	4.40503
298.323	3.3742
298.54	6.67381
298.756	4.26055
298.973	3.49518
299.189	7.39124
299.406	4.92764
299.622	7.07948
299.838	7.39217
300.055	7.15096
300.271	4.75738
300.487	4.95189
300.704	5.88433
300.92	5.1129
301.136	10.71119
301.353	8.0699
301.569	7.13098
301.785	7.79803
302.001	8.68134
302.218	8.24239
302.434	8.77813
302.65	6.44348
302.866	7.43537
303.083	11.50293
303.299	11.60208
303.515	8.46525
303.731	9.97965
303.947	7.23406
304.163	8.33182
304.379	9.55088
304.595	9.73606
304.812	8.10854
305.028	8.27339
305.244	8.74001
305.46	10.21087
305.676	10.93552
305.892	11.98534
306.108	10.67005
306.324	9.20137
306.54	12.72545
306.756	10.67158
306.972	10.35621
307.187	10.61767
307.403	11.54729
307.619	9.00533
307.835	11.37822
308.051	12.03744
308.267	8.67618
308.483	12.72666
308.699	11.23162
308.914	10.65525
309.13	10.7355
309.346	9.54534
309.562	10.16507
309.778	9.59152
309.993	12.00363
310.209	12.29062
310.425	9.81935
310.641	12.11967
310.856	11.02231
311.072	10.71117
311.288	11.93353
311.503	13.11448
311.719	9.97913
311.935	10.42202
312.15	13.72139
312.366	13.35804
312.581	13.49284
312.797	13.35614
313.013	14.11857
313.228	12.146
313.444	11.73969
313.659	11.35544
313.875	12.66534
314.09	11.87834
314.306	13.97634
314.521	13.00205
314.737	12.88036
314.952	12.60935
315.168	12.69054
315.383	13.25394
315.599	11.14719
315.814	12.23349
316.029	12.74585
316.245	11.44779
316.46	9.72074
316.675	14.00537
316.891	15.21065
317.106	16.63214
317.321	12.75592
317.537	13.84862
317.752	14.39719
317.967	14.17202
318.183	11.622
318.398	12.40472
318.613	14.21558
318.828	14.90309
319.043	13.45184
319.259	12.4696
319.474	12.77262
319.689	15.17343
319.904	10.49643
320.119	14.80907
320.334	13.23884
320.549	13.37031
320.765	14.65475
320.98	14.208
321.195	13.52012
321.41	13.18651
321.625	14.27431
321.84	15.69158
322.055	15.6944
322.27	12.47755
322.485	11.39234
322.7	13.75005
322.915	14.59832
323.13	13.45309
323.345	16.14431
323.56	15.37692
323.775	15.11718
323.989	15.28641
324.204	14.14273
324.419	16.11626
324.634	13.13246
324.849	14.55512
325.064	19.42833
325.279	16.79027
325.493	15.79095
325.708	16.15875
325.923	13.88318
326.138	14.87669
326.352	17.13357
326.567	16.07822
326.782	13.89879
326.997	14.50912
327.211	15.6907
327.426	15.8381
327.641	15.28382
327.855	13.5364
328.07	16.61412
328.285	18.73679
328.499	14.90417
328.714	16.24526
328.928	16.06191
329.143	15.70081
329.358	17.60894
329.572	16.72928
329.787	18.09363
330.001	19.30602
330.216	12.74935
330.43	19.08953
330.645	16.90703
330.859	16.7266
331.074	13.87915
331.288	16.24095
331.503	18.95936
331.717	13.925
331.931	16.18521
332.146	16.78626
332.36	19.58813
332.575	16.67495
332.789	16.4122
333.003	17.26175
333.218	17.20733
333.432	16.58343
333.646	18.07609
333.86	19.73962
334.075	19.41282
334.289	16.08842
334.503	14.59775
334.717	18.28195
334.932	16.71074
335.146	17.85903
335.36	15.49459
335.574	18.89665
335.788	17.51483
336.003	19.12181
336.217	19.6337
336.431	18.28417
336.645	16.65298
336.859	15.93654
337.073	17.08349
337.287	18.38273
337.501	15.09186
337.715	18.42355
337.929	18.51304
338.143	16.81883
338.357	17.86808
338.571	18.09347
338.785	20.19006
338.999	18.07331
339.213	18.67289
339.427	17.37068
339.641	21.23421
339.855	18.0572
340.069	17.47392
340.283	20.05793
340.497	20.94511
340.711	20.1475
340.924	18.78872
341.138	17.84963
341.352	17.24004
341.566	19.655
341.78	17.05469
341.993	18.17304
342.207	18.48477
342.421	19.91339
342.635	19.76254
342.848	19.15948
343.062	16.21052
343.276	19.02282
343.49	21.87454
343.703	18.7541
343.917	21.32446
344.131	21.58858
344.344	18.83734
344.558	19.65524
344.771	18.58991
344.985	21.68411
345.199	23.22538
345.412	21.29761
345.626	21.39357
345.839	18.36629
346.053	19.37584
346.266	19.56703
346.48	21.69251
346.693	21.3012
346.907	21.41622
347.12	19.24259
347.334	20.66836
347.547	21.42293
347.76	20.90782
347.974	22.03601
348.187	21.08467
348.401	20.75268
348.614	19.10607
348.827	21.03591
349.041	21.43
349.254	18.41601
349.467	20.6848
349.681	19.74701
349.894	19.27736
350.107	23.08982
350.32	24.57197
350.534	19.40385
350.747	21.20222
350.96	20.76119
351.173	21.08571
351.386	21.62257
351.6	20.83602
351.813	21.34483
352.026	21.06869
352.239	20.72944
352.452	20.93374
352.665	23.37969
352.878	20.87652
353.092	25.45395
353.305	23.01249
353.518	22.76521
353.731	20.92335
353.944	24.06709
354.157	22.11579
354.37	21.8568
354.583	20.55481
354.796	21.38861
355.009	24.40606
355.222	23.24835
355.435	22.97489
355.647	24.73955
355.86	22.26427
356.073	23.20745
356.286	22.34767
356.499	24.67573
356.712	25.14986
356.925	24.18715
357.138	25.07274
357.35	22.53104
357.563	23.08254
357.776	24.42134
357.989	24.34116
358.201	24.86516
358.414	24.6946
358.627	26.33987
358.84	24.03967
359.052	23.0056
359.265	23.4801
359.478	25.4984
359.69	21.35502
359.903	25.74585
360.116	26.07023
360.328	22.73101
360.541	25.6873
360.753	24.16209
360.966	24.44103
361.179	24.84704
361.391	24.7176
361.604	24.5367
361.816	24.93316
362.029	25.12148
362.241	25.17102
362.454	25.84766
362.666	24.85779
362.879	26.9964
363.091	25.76549
363.304	25.74809
363.516	25.81117
363.728	24.99906
363.941	26.86718
364.153	26.3203
364.366	23.84367
364.578	24.81897
364.79	27.10489
365.003	26.86772
365.215	25.58929
365.427	27.42668
365.639	27.955
365.852	26.69555
366.064	28.72104
366.276	26.30669
366.488	27.07552
366.701	26.51763
366.913	26.2466
367.125	26.50484
367.337	26.15204
367.549	26.71364
367.762	26.68752
367.974	26.69951
368.186	26.88572
368.398	28.65178
368.61	27.88278
368.822	28.38854
369.034	26.47891
369.246	28.87184
369.458	31.11069
369.67	26.69239
369.882	29.10356
370.094	24.55671
370.306	29.04453
370.518	27.55257
370.73	26.62865
370.942	27.17174
371.154	27.8337
371.366	27.7151
371.578	29.40623
371.79	28.27349
372.002	29.65046
372.214	31.52035
372.425	28.35655
372.637	31.32412
372.849	29.51945
373.061	26.38277
373.273	29.09098
373.484	29.42674
373.696	29.86767
373.908	26.14004
374.12	29.56537
374.331	30.06497
374.543	27.78728
374.755	27.7878
374.967	29.01029
375.178	30.73319
375.39	28.69893
375.602	29.7266
375.813	27.727
376.025	28.55105
376.236	29.40403
376.448	30.10136
376.66	29.82725
376.871	29.92171
377.083	31.06185
377.294	32.37847
377.506	29.23491
377.717	31.66198
377.929	30.51432
378.14	30.16688
378.352	31.09056
378.563	31.31885
378.775	32.61841
378.986	29.65577
379.197	31.09905
379.409	29.81858
379.62	31.47165
379.832	31.4096
380.043	30.805
380.254	31.18292
380.466	29.09949
380.677	34.44924
380.888	33.69547
381.1	34.87651
381.311	34.96152
381.522	31.95099
381.733	35.3592
381.945	31.55066
382.156	31.24308
382.367	31.63637
382.578	35.34168
382.789	35.54284
383.001	30.92104
383.212	34.00758
383.423	34.04562
383.634	32.9053
383.845	33.38852
384.056	31.76625
384.267	32.55807
384.478	32.82517
384.69	30.92123
384.901	33.43195
385.112	32.87816
385.323	35.19241
385.534	33.86356
385.745	34.39471
385.956	33.68485
386.167	32.20696
386.378	33.88461
386.588	32.87044
386.799	32.44647
387.01	31.59211
387.221	34.53819
387.432	33.74697
387.643	35.68253
387.854	33.25058
388.065	33.22927
388.275	33.14081
388.486	32.93107
388.697	34.46855
388.908	33.56139
389.119	35.01462
389.329	35.72021
389.54	34.27915
389.751	34.69183
389.962	35.78871
390.172	33.70106
390.383	34.08463
390.594	33.51808
390.804	33.02864
391.015	33.98386
391.226	34.19726
391.436	35.21874
391.647	35.18466
391.858	35.27991
392.068	32.86489
392.279	34.09115
392.489	35.64165
392.7	36.02799
392.91	34.4359
393.121	34.12975
393.331	35.82737
393.542	36.28993
393.752	36.17724
393.963	36.10422
394.173	36.11835
394.384	36.08115
394.594	35.29235
394.804	34.37683
395.015	35.85639
395.225	36.5879
395.436	34.93173
395.646	36.28834
395.856	35.79996
396.067	34.40979
396.277	36.79306
396.487	36.55512
396.697	36.82853
396.908	37.26255
397.118	36.12228
397.328	36.11367
397.538	37.2848
397.749	35.4851
397.959	37.06895
398.169	36.5371
398.379	34.81884
398.589	36.36175
398.8	36.77127
399.01	37.0184
399.22	36.2934
399.43	38.20981
399.64	36.5975
399.85	37.47049
400.06	37.2154
400.27	36.03051
400.48	36.41374
400.69	37.67361
400.9	35.81599
401.11	35.47894
401.32	37.30752
401.53	35.95263
401.74	38.3976
401.95	36.95732
402.16	35.96176
402.37	36.71677
402.58	36.19562
402.79	37.40654
403	37.58466
403.209	36.13795
403.419	37.70804
403.629	36.02921
403.839	38.03483
404.049	38.29622
404.258	36.62208
404.468	36.52802
404.678	38.21272
404.888	38.86232
405.097	37.46133
405.307	37.22408
405.517	38.03635
405.727	38.35461
405.936	37.2557
406.146	38.0426
406.356	39.18369
406.565	37.82908
406.775	37.4179
406.984	38.09873
407.194	40.3823
407.404	38.26394
407.613	38.69837
407.823	38.96881
408.032	39.69901
408.242	38.23021
408.451	37.57128
408.661	38.23501
408.87	40.00169
409.08	37.04373
409.289	38.62525
409.499	38.45677
409.708	37.62572
409.918	35.82657
410.127	38.26867
410.336	39.56145
410.546	39.37673
410.755	37.63706
410.964	38.21411
411.174	37.22817
411.383	39.06077
411.592	39.07709
411.802	37.77892
412.011	38.88922
412.22	37.98548
412.429	40.27533
412.639	40.45017
412.848	39.61422
413.057	40.44817
413.266	39.85668
413.475	38.15528
413.685	39.19342
413.894	39.62741
414.103	39.66688
414.312	39.16527
414.521	37.92761
414.73	38.44848
414.939	40.57625
415.148	39.06853
415.357	38.72781
415.566	38.60879
415.776	38.28079
415.985	38.28988
416.194	40.14887
416.403	40.77297
416.611	37.63453
416.82	38.08614
417.029	39.01395
417.238	38.15078
417.447	38.43353
417.656	38.62145
417.865	38.40623
418.074	38.7587
418.283	39.2256
418.492	40.10014
418.7	40.25126
418.909	41.27995
419.118	39.34285
419.327	40.17086
419.536	39.8797
419.744	39.3081
419.953	40.59348
420.162	40.53627
420.371	39.10732
420.579	39.1124
420.788	40.29322
420.997	40.34222
421.205	40.53098
421.414	40.0976
421.623	40.80487
421.831	39.95349
422.04	40.86633
422.249	40.464
422.457	40.74022
422.666	40.29106
422.874	41.54835
423.083	40.97908
423.291	40.9656
423.5	40.53334
423.708	40.51873
423.917	41.38959
424.125	40.53219
424.334	40.26713
424.542	42.68321
424.751	41.64301
424.959	41.6877
425.167	42.37339
425.376	42.75666
425.584	41.93374
425.793	42.47993
426.001	41.36446
426.209	42.95303
426.418	41.50178
426.626	41.38094
426.834	41.46218
427.042	41.84297
427.251	41.22171
427.459	42.5016
427.667	41.69945
427.875	40.19925
428.084	41.02806
428.292	42.84838
428.5	42.68549
428.708	40.28592
428.916	40.51143
429.124	41.66698
429.333	40.99421
429.541	41.20602
429.749	41.70679
429.957	41.19349
430.165	44.5301
430.373	39.94637
430.581	41.10306
430.789	43.64666
430.997	41.72447
431.205	40.80809
431.413	41.85514
431.621	41.23978
431.829	42.0635
432.037	41.11232
432.245	41.94257
432.453	41.77838
432.661	41.14738
432.869	43.18518
433.076	40.75301
433.284	41.66716
433.492	42.95371
433.7	43.81887
433.908	42.68011
434.116	42.62304
434.323	43.15923
434.531	42.8873
434.739	43.34155
434.947	43.63134
435.154	43.9972
435.362	43.29218
435.57	42.55531
435.778	42.52879
435.985	43.11951
436.193	42.13457
436.401	43.75954
436.608	42.5393
436.816	41.92609
437.023	43.65147
437.231	44.16344
437.439	43.57153
437.646	43.14264
437.854	43.06084
438.061	43.29755
438.269	42.283
438.476	43.14434
438.684	42.54011
438.891	42.19172
439.099	42.14545
439.306	41.74384
439.514	41.86622
439.721	43.71823
439.929	41.97578
440.136	43.25746
440.343	43.2217
440.551	42.89566
440.758	45.6268
440.965	43.92248
441.173	43.74178
441.38	43.20944
441.587	44.19447
441.795	43.93428
442.002	44.16477
442.209	44.41857
442.416	44.74718
442.624	44.98976
442.831	44.80015
443.038	43.32781
443.245	43.20058
443.452	43.15397
443.66	44.43441
443.867	43.01879
444.074	42.5766
444.281	42.10687
444.488	42.75574
444.695	42.68071
444.902	42.58162
445.109	43.51912
445.316	42.55997
445.523	42.74002
445.73	41.97817
445.937	43.67678
446.144	43.47266
446.351	43.78377
446.558	43.33328
446.765	44.77824
446.972	44.96584
447.179	44.09551
447.386	45.22105
447.593	44.15041
447.8	45.28413
448.007	44.7067
448.214	45.38461
448.42	44.24802
448.627	46.17529
448.834	44.47659
449.041	45.05633
449.248	44.76289
449.454	45.18688
449.661	46.52564
449.868	44.04026
450.075	43.59123
450.281	42.54222
450.488	43.49867
450.695	43.27161
450.901	43.06539
451.108	44.01758
451.315	44.89098
451.521	43.28971
451.728	44.74796
451.935	43.2273
452.141	43.91205
452.348	44.03483
452.554	44.71423
452.761	44.29873
452.967	46.28667
453.174	44.80603
453.38	45.08205
453.587	43.8577
453.793	45.03682
454	45.47827
454.206	47.03529
454.413	45.76781
454.619	45.22098
454.825	43.77693
455.032	45.01879
455.238	45.73682
455.445	43.62964
455.651	45.04861
455.857	43.29391
456.064	44.51402
456.27	44.46323
456.476	44.23067
456.682	43.36517
456.889	44.57273
457.095	45.18295
457.301	46.99395
457.507	44.4069
457.714	44.52454
457.92	44.51048
458.126	43.54404
458.332	43.86591
458.538	43.33351
458.744	43.27324
458.951	43.645
459.157	45.85474
459.363	44.41824
459.569	44.18025
459.775	46.07979
459.981	44.49359
460.187	45.72796
460.393	46.21358
460.599	47.5404
460.805	46.42744
461.011	46.97778
461.217	48.36365
461.423	47.83456
461.629	46.71036
461.835	47.47675
462.041	46.55009
462.247	48.17213
462.453	46.38502
462.658	46.23792
462.864	47.03906
463.07	46.11584
463.276	45.97564
463.482	45.6867
463.688	47.0537
463.893	44.90439
464.099	45.40433
464.305	47.3543
464.511	45.50404
464.716	45.85802
464.922	46.92143
465.128	45.06128
465.333	47.01321
465.539	46.84587
465.745	45.98982
465.95	46.03056
466.156	49.34613
466.362	47.08098
466.567	46.15171
466.773	45.40123
466.978	47.88762
467.184	45.74091
467.389	44.64593
467.595	46.64577
467.8	46.21187
468.006	47.86949
468.211	47.8329
468.417	45.73996
468.622	46.659
468.828	47.56871
469.033	46.96984
469.239	49.72744
469.444	45.92131
469.649	47.24417
469.855	46.77471
470.06	46.97889
470.266	45.14373
470.471	47.26375
470.676	47.38915
470.881	45.02739
471.087	48.3673
471.292	49.33038
471.497	45.38363
471.703	46.80252
471.908	46.23495
472.113	46.46165
472.318	47.73151
472.523	45.76498
472.729	47.15663
472.934	47.1428
473.139	46.62971
473.344	47.2079
473.549	48.49779
473.754	46.35976
473.959	49.73183
474.164	47.14897
474.369	46.78424
474.575	47.69481
474.78	47.37914
474.985	46.41179
475.19	45.11805
475.395	46.19578
475.6	46.5737
475.804	48.48683
476.009	46.60086
476.214	46.22536
476.419	46.71239
476.624	45.27615
476.829	45.78588
477.034	47.44757
477.239	46.41143
477.444	47.3838
477.648	47.34828
477.853	47.98129
478.058	46.84132
478.263	46.87286
478.468	46.00072
478.672	46.53909
478.877	49.07447
479.082	49.50105
479.287	47.70442
479.491	47.71106
479.696	46.62984
479.901	48.3273
480.105	47.75817
480.31	46.71748
480.515	47.36094
480.719	49.0706
480.924	46.25607
481.128	45.66084
481.333	46.79455
481.538	47.08695
481.742	46.19129
481.947	46.98848
482.151	46.10425
482.356	45.63442
482.56	48.54096
482.765	55.23891
482.969	64.53895
483.174	72.53747
483.378	83.10025
483.582	87.12738
483.787	91.60346
483.991	93.34337
484.196	93.25411
484.4	91.54851
484.604	89.54381
484.809	82.23238
485.013	76.14472
485.217	68.4213
485.422	60.71348
485.626	55.25515
485.83	52.19786
486.034	51.18219
486.239	52.57895
486.443	54.79888
486.647	57.27678
486.851	60.24387
487.055	64.79254
487.26	66.29803
487.464	69.09675
487.668	68.32726
487.872	70.17797
488.076	69.22219
488.28	66.21545
488.484	62.18206
488.688	59.27598
488.892	55.53211
489.096	51.64033
489.3	49.77703
489.504	49.66664
489.708	49.92364
489.912	49.72161
490.116	48.74533
490.32	47.46795
490.524	47.29553
490.728	48.08768
490.932	51.08312
491.136	54.73834
491.34	57.54075
491.544	58.23629
491.748	58.99582
491.951	58.30673
492.155	56.65563
492.359	54.11721
492.563	50.29014
492.767	50.86142
492.97	51.22945
493.174	50.63204
493.378	51.2124
493.582	50.39323
493.785	50.18336
493.989	50.40688
494.193	49.91161
494.396	48.96189
494.6	49.83144
494.804	48.75694
495.007	48.5857
495.211	48.64458
495.414	48.38592
495.618	48.63578
495.822	49.51805
496.025	48.01475
496.229	49.11479
496.432	48.16159
496.636	48.90344
496.839	48.9891
497.043	50.09171
497.246	49.19231
497.45	49.15294
497.653	49.43814
497.856	49.75943
498.06	48.9116
498.263	49.59487
498.467	49.34571
498.67	50.68202
498.873	50.16654
499.077	50.20331
499.28	49.53708
499.483	50.01923
499.686	50.57827
499.89	50.20576
500.093	50.60025
500.296	49.11415
500.499	51.29633
500.703	50.02124
500.906	49.89743
501.109	51.72155
501.312	50.04592
501.515	49.62905
501.719	50.34853
501.922	50.90075
502.125	49.62269
502.328	49.64246
502.531	48.54414
502.734	49.42446
502.937	47.65082
503.14	49.53566
503.343	48.50618
503.546	49.23318
503.749	48.23098
503.952	49.93679
504.155	48.50975
504.358	50.26481
504.561	50.13247
504.764	48.94951
504.967	50.42706
505.17	49.76905
505.373	51.57567
505.576	49.88124
505.778	50.72588
505.981	48.79999
506.184	51.1841
506.387	48.71007
506.59	51.186
506.793	50.86402
506.995	50.06917
507.198	47.79525
507.401	50.02235
507.604	50.12153
507.806	48.66871
508.009	48.78262
508.212	50.15759
508.414	49.41848
508.617	48.77971
508.82	50.06916
509.022	51.32941
509.225	50.74791
509.427	48.61854
509.63	51.34622
509.833	50.25139
510.035	49.83591
510.238	49.04887
510.44	51.41374
510.643	48.69139
510.845	51.98727
511.048	50.43078
511.25	49.16516
511.453	49.88604
511.655	49.96159
511.858	49.8467
512.06	50.98902
512.262	50.38356
512.465	51.2544
512.667	50.04258
512.869	49.13848
513.072	50.83246
513.274	51.04259
513.476	51.87647
513.679	51.33225
513.881	50.04922
514.083	52.00185
514.286	50.3758
514.488	50.16666
514.69	49.87806
514.892	49.54806
515.094	51.8917
515.297	49.96111
515.499	50.69253
515.701	50.03616
515.903	52.30783
516.105	52.23049
516.307	50.61613
516.509	48.47736
516.711	48.53602
516.913	49.91241
517.116	49.52897
517.318	48.96452
517.52	50.47198
517.722	49.88148
517.924	48.29085
518.126	49.97008
518.328	49.09469
518.529	50.23493
518.731	52.0354
518.933	50.23051
519.135	50.7829
519.337	52.33804
519.539	51.55821
519.741	49.87148
519.943	51.44434
520.145	51.57223
520.346	52.22469
520.548	51.17922
520.75	51.8003
520.952	51.03707
521.153	51.83334
521.355	51.85701
521.557	50.45221
521.759	51.38924
521.96	51.18745
522.162	49.76131
522.364	52.55908
522.565	50.46147
522.767	51.54336
522.969	51.83656
523.17	51.14087
523.372	51.27504
523.573	50.09811
523.775	50.07748
523.977	48.85867
524.178	52.4452
524.38	49.4205
524.581	50.53757
524.783	49.55032
524.984	50.66197
525.186	49.8144
525.387	50.51179
525.589	50.08003
525.79	50.32568
525.991	49.92067
526.193	50.98617
526.394	49.87191
526.596	50.96715
526.797	50.97125
526.998	49.7726
527.2	48.96211
527.401	49.66358
527.602	51.12718
527.803	58.11777
528.005	63.47553
528.206	68.35305
528.407	71.35105
528.608	72.19311
528.81	72.44322
529.011	70.90632
529.212	71.0016
529.413	66.61974
529.614	61.42824
529.815	56.55534
530.017	53.68967
530.218	53.79828
530.419	52.51027
530.62	53.15047
530.821	52.5819
531.022	50.86056
531.223	52.10073
531.424	51.98976
531.625	51.72671
531.826	50.97426
532.027	50.42285
532.228	51.49859
532.429	50.34333
532.63	50.00092
532.831	50.55661
533.032	51.11654
533.233	51.58969
533.433	51.61616
533.634	52.14953
533.835	52.12486
534.036	51.7451
534.237	52.75303
534.438	52.76918
534.638	52.66348
534.839	52.75942
535.04	53.14276
535.241	51.8143
535.441	53.50369
535.642	51.57987
535.843	49.40435
536.043	50.3806
536.244	50.12524
536.445	50.9647
536.645	52.46859
536.846	51.7106
537.047	53.3644
537.247	51.45977
537.448	52.26703
537.648	52.91627
537.849	52.79997
538.049	53.20003
538.25	53.45762
538.451	53.68797
538.651	51.22887
538.851	52.20646
539.052	53.27464
539.252	52.37415
539.453	50.84406
539.653	50.84715
539.854	50.07333
540.054	49.92232
540.254	50.77817
540.455	50.82142
540.655	49.6675
540.855	50.5538
541.056	53.02887
541.256	53.34177
541.456	54.88837
541.657	54.45058
541.857	54.46596
542.057	52.39657
542.257	52.37102
542.458	53.7147
542.658	54.30865
542.858	52.71411
543.058	54.80175
543.258	54.14901
543.458	52.14881
543.659	52.32428
543.859	53.99339
544.059	53.71938
544.259	53.26567
544.459	54.00487
544.659	53.05037
544.859	53.54413
545.059	52.25397
545.259	53.22622
545.459	52.72335
545.659	53.48664
545.859	52.24922
546.059	52.17079
546.259	51.63237
546.459	51.54052
546.659	51.60034
546.859	53.87446
547.059	53.62337
547.258	54.14479
547.458	54.25989
547.658	52.32655
547.858	52.89857
548.058	53.90004
548.258	54.28765
548.457	52.75614
548.657	56.48909
548.857	53.69256
549.057	54.854
549.256	54.49545
549.456	52.85125
549.656	50.75087
549.855	55.63273
550.055	52.69415
550.255	56.22777
550.454	53.56865
550.654	53.65218
550.853	54.37986
551.053	53.47735
551.253	52.99536
551.452	53.64236
551.652	51.18808
551.851	50.64848
552.051	51.81362
552.25	51.87168
552.45	51.9007
552.649	52.59001
552.849	51.90495
553.048	53.41793
553.248	54.12295
553.447	51.86453
553.646	54.9143
553.846	56.22034
554.045	54.72259
554.244	51.71072
554.444	56.11642
554.643	52.31512
554.842	55.57001
555.042	56.3582
555.241	53.06897
555.44	51.98935
555.64	54.15704
555.839	55.80492
556.038	53.72706
556.237	52.33006
556.436	53.53828
556.636	54.81684
556.835	52.36793
557.034	55.40746
557.233	53.08513
557.432	52.28388
557.631	55.37676
557.83	53.92406
558.029	53.06155
558.228	52.18959
558.427	52.65284
558.626	54.90627
558.825	51.76651
559.024	53.4245
559.223	56.4311
559.422	53.71198
559.621	53.75059
559.82	49.48548
560.019	52.78998
560.218	52.58116
560.417	49.50727
560.616	51.78872
560.815	57.23052
561.014	51.54906
561.212	55.70788
561.411	53.41293
561.61	51.535
561.809	52.41075
562.008	56.10298
562.206	53.39405
562.405	54.33175
562.604	52.84661
562.803	54.00114
563.001	53.11758
563.2	51.84999
563.399	54.11038
563.597	51.45137
563.796	53.34319
563.995	51.1117
564.193	53.86941
564.392	52.55782
564.59	56.35191
564.789	50.24284
564.988	51.50071
565.186	52.93783
565.385	52.24823
565.583	51.71524
565.782	52.57347
565.98	52.57659
566.179	53.19753
566.377	51.83755
566.575	53.22127
566.774	56.07942
566.972	55.33726
567.171	56.96392
567.369	56.133
567.567	54.22116
567.766	55.03744
567.964	51.404
568.162	54.82556
568.361	55.34968
568.559	53.69718
568.757	53.47098
568.956	53.89724
569.154	53.66178
569.352	54.70225
569.55	53.47266
569.748	53.68795
569.947	51.97584
570.145	51.93524
570.343	51.51398
570.541	54.68727
570.739	51.38332
570.937	52.94237
571.135	53.66526
571.333	55.41429
571.532	54.89892
571.73	53.87946
571.928	55.14008
572.126	54.12707
572.324	53.3756
572.522	55.97797
572.72	57.73931
572.918	54.48285
573.116	54.59527
573.313	54.17241
573.511	54.22476
573.709	53.08081
573.907	54.90535
574.105	53.49046
574.303	50.53092
574.501	51.71482
574.699	54.01297
574.896	54.80089
575.094	53.88317
575.292	52.15475
575.49	55.70402
575.688	53.62697
575.885	55.79152
576.083	58.19134
576.281	55.063
576.478	53.73766
576.676	55.4139
576.874	52.67101
577.071	54.65597
577.269	58.50584
577.467	54.53974
577.664	54.28737
577.862	56.6314
578.059	53.07852
578.257	56.26972
578.455	54.01988
578.652	54.75534
578.85	51.16625
579.047	54.21619
579.245	54.37363
579.442	53.8522
579.64	54.30412
579.837	50.5366
580.034	59.12886
580.232	53.34121
580.429	50.94383
580.627	53.98841
580.824	56.23904
581.021	55.14711
581.219	53.2868
581.416	53.13842
581.613	55.91508
581.811	56.83447
582.008	52.87136
582.205	55.25552
582.402	54.41945
582.6	57.35106
582.797	55.03843
582.994	54.45868
583.191	56.8479
583.388	54.24447
583.586	55.73752
583.783	56.72512
583.98	53.6526
584.177	54.23048
584.374	49.87994
584.571	54.03244
584.768	54.35728
584.965	53.37531
585.162	55.65186
585.359	57.41657
585.556	55.02848
585.753	54.36929
585.95	51.86916
586.147	52.20901
586.344	55.82155
586.541	54.18945
586.738	52.63083
586.935	53.94479
587.132	52.89494
587.329	55.36533
587.526	53.576
587.722	62.60195
587.919	51.4867
588.116	54.30633
588.313	55.98182
588.51	58.36914
588.706	53.60227
588.903	55.24097
589.1	55.4269
589.297	58.61011
589.493	55.63464
589.69	55.52764
589.887	53.71384
590.083	52.1549
590.28	53.26737
590.477	56.25549
590.673	56.43492
590.87	57.39738
591.067	54.62982
591.263	55.587
591.46	55.46338
591.656	54.33807
591.853	57.17364
592.049	53.32377
592.246	53.05234
592.442	57.23993
592.639	57.91586
592.835	52.94398
593.032	55.28388
593.228	52.07252
593.425	51.59243
593.621	50.56433
593.817	55.48279
594.014	52.05277
594.21	54.89447
594.406	55.78347
594.603	55.60853
594.799	53.85362
594.995	50.9938
595.192	56.58733
595.388	53.94689
595.584	54.09317
595.78	51.4848
595.977	58.06308
596.173	57.03688
596.369	52.89621
596.565	52.45994
596.761	51.93764
596.957	56.84765
597.154	53.4333
597.35	53.78346
597.546	53.60459
597.742	57.58895
597.938	56.30627
598.134	53.96724
598.33	57.2255
598.526	58.43636
598.722	55.78307
598.918	59.56949
599.114	56.38336
599.31	53.38054
599.506	54.83215
599.702	54.24208
599.898	54.58074
600.094	55.67224
600.29	56.63431
600.485	56.561
600.681	54.22048
600.877	58.99143
601.073	55.25353
601.269	59.36805
601.465	57.98254
601.66	52.93427
601.856	50.80901
602.052	57.4796
602.248	53.98292
602.443	51.13263
602.639	52.19794
602.835	52.41694
603.03	52.44636
603.226	55.75502
603.422	53.07023
603.617	53.25608
603.813	53.32322
604.009	53.88929
604.204	56.79929
604.4	52.55102
604.595	57.00715
604.791	53.97214
604.986	55.89117
605.182	54.41893
605.377	55.22647
605.573	55.19561
605.768	56.55174
605.964	58.10666
606.159	58.2916
606.355	58.42236
606.55	55.62934
606.746	59.23644
606.941	55.59573
607.136	60.56981
607.332	61.87641
607.527	52.75511
607.722	55.54233
607.918	54.67077
608.113	53.2501
608.308	56.70451
608.503	55.02079
608.699	55.18476
608.894	55.5834
609.089	52.70296
609.284	54.57911
609.479	54.89355
609.675	56.50947
609.87	55.55365
610.065	57.83259
610.26	58.06793
610.455	57.35515
610.65	55.85654
610.845	56.74821
611.04	58.80923
611.235	56.06901
611.43	55.5625
611.625	54.13359
611.82	59.51194
612.015	54.93953
612.21	59.99317
612.405	53.01315
612.6	60.46706
612.795	59.33487
612.99	57.297
613.185	54.22008
613.38	54.71936
613.575	55.89699
613.77	61.90255
613.965	52.75993
614.159	54.02579
614.354	58.7698
614.549	59.14302
614.744	58.39561
614.938	54.01286
615.133	52.62089
615.328	60.48907
615.523	59.24566
615.717	64.41729
615.912	54.74759
616.107	57.37818
616.301	56.07123
616.496	55.99088
616.691	59.58769
616.885	58.39186
617.08	64.33884
617.274	59.19244
617.469	60.46647
617.664	58.39871
617.858	55.06364
618.053	57.13149
618.247	56.6525
618.442	52.06005
618.636	61.60545
618.831	55.38613
619.025	54.34079
619.219	64.03512
619.414	50.04732
619.608	55.81815
619.803	54.21547
619.997	62.15712
620.191	59.84321
620.386	58.30352
620.58	56.61816
620.774	53.09459
620.969	52.68589
621.163	56.79167
621.357	54.11546
621.551	56.70953
621.746	56.95222
621.94	55.38766
622.134	66.24554
622.328	61.91587
622.522	52.22074
622.716	59.60801
622.911	60.17231
623.105	60.60794
623.299	58.06988
623.493	64.97788
623.687	54.09321
623.881	56.62566
624.075	58.11201
624.269	59.2003
624.463	51.7399
624.657	52.18564
624.851	57.83447
625.045	57.68793
625.239	59.36179
625.433	56.15313
625.627	60.40068
625.821	54.91349
626.015	54.21508
626.209	56.44437
626.403	52.70492
626.596	57.62728
626.79	58.00179
626.984	54.0565
627.178	58.54647
627.372	58.12354
627.565	59.46046
627.759	52.81628
627.953	54.99011
628.147	59.12191
628.34	59.00922
628.534	64.08001
628.728	56.38126
628.921	60.07753
629.115	59.86908
629.309	59.70412
629.502	60.18129
629.696	57.43079
629.89	56.54204
630.083	57.9967
630.277	58.41136
630.47	61.68836
630.664	55.79204
630.857	52.51595
631.051	59.61144
631.244	61.1276
631.438	59.73146
631.631	56.47378
631.825	62.63724
632.018	60.06754
632.212	62.85835
632.405	60.56648
632.598	55.20411
632.792	56.92504
632.985	50.24721
633.178	56.06338
633.372	56.69961
633.565	56.35696
633.758	61.51155
633.952	55.21559
634.145	54.77484
634.338	56.25513
634.531	55.38574
634.724	56.8811
634.918	57.62605
635.111	58.08871
635.304	56.37461
635.497	65.72097
635.69	59.46405
635.883	62.70885
636.077	55.26752
636.27	59.7963
636.463	57.61703
636.656	58.73198
636.849	58.62426
637.042	61.50898
637.235	62.13841
637.428	61.09062
637.621	62.14832
637.814	64.33127
638.007	63.86934
638.2	64.3697
638.393	65.72766
638.586	54.46256
638.778	57.10972
638.971	58.60811
639.164	63.38557
639.357	59.77609
639.55	66.35638
639.743	63.29781
639.935	61.23169
640.128	66.55586
640.321	62.65002
640.514	59.269
640.707	67.30744
640.899	61.57291
641.092	53.37906
641.285	89.91106
641.477	51.74879
641.67	68.89038
641.863	63.98888
642.055	61.00129
642.248	56.89631
642.441	57.89162
642.633	61.41132
642.826	64.90359
643.018	64.3122
643.211	68.63765
643.403	67.80126
643.596	67.07584
643.788	68.69266
643.981	58.50067
644.173	63.70161
644.366	59.67213
644.558	53.23355
644.751	66.64809
644.943	55.17458
645.135	64.62423
645.328	67.40442
645.52	63.50399
645.712	64.49907
645.905	71.94204
646.097	55.89593
646.289	58.99053
646.482	69.07144
646.674	56.60846
646.866	64.59365
647.058	62.93775
647.251	56.16678
647.443	60.72216
647.635	60.08276
647.827	53.91175
648.019	57.42675
648.211	61.61315
648.404	60.10377
648.596	68.72738
648.788	62.02212
648.98	60.57482
649.172	61.63773
649.364	62.34728
649.556	52.77579
649.748	72.27227
649.94	57.08949
650.132	63.58583
650.324	56.64656
650.516	59.01761
650.708	65.85205
650.9	55.68106
651.092	54.28651
651.284	56.20962
651.476	56.56606
651.667	64.1048
651.859	65.8469
652.051	59.99238
652.243	61.18775
652.435	59.48562
652.627	64.78959
652.818	63.12646
653.01	55.55614
653.202	58.08287
653.394	58.91539
653.585	64.13715
653.777	80.83493
653.969	66.8775
654.16	68.50793
654.352	58.38554
654.544	59.90391
654.735	66.60722
654.927	62.96274
655.118	67.28598
655.31	64.99933
655.502	66.80577
655.693	59.99332
655.885	63.44194
656.076	68.24897
656.268	63.4365
656.459	68.15288
656.651	67.10488
656.842	59.29901
657.034	58.03876
657.225	64.76572
657.416	66.60873
657.608	68.21615
657.799	60.65507
657.99	66.58689
658.182	58.39571
658.373	58.85671
658.564	63.93229
658.756	61.0595
658.947	59.46543
659.138	57.01435
659.33	59.75067
659.521	57.8356
659.712	62.25074
659.903	61.9494
660.094	60.38926
660.286	56.05578
660.477	70.99044
660.668	66.70992
660.859	62.30149
661.05	57.08268
661.241	67.15923
661.432	66.14437
661.623	61.77638
661.814	60.38848
662.006	57.24837
662.197	63.87511
662.388	69.90257
662.579	65.51782
662.77	70.14905
662.96	77.65132
663.151	66.30755
663.342	55.10302
663.533	67.71839
663.724	64.39849
663.915	70.54415
664.106	62.13733
664.297	73.20954
664.488	65.96487
664.678	61.33313
664.869	69.40677
665.06	70.10849
665.251	65.72271
665.442	65.68534
665.632	58.38982
665.823	71.87343
666.014	49.51929
666.204	68.2307
666.395	72.27594
666.586	78.07047
666.776	68.41629
666.967	74.44353
667.158	64.6769
667.348	68.09917
667.539	58.99696
667.729	68.72417
667.92	60.77847
668.111	67.52947
668.301	66.10646
668.492	62.92611
668.682	65.92092
668.873	64.70471
669.063	58.44015
669.253	67.35216
669.444	72.16168
669.634	66.28495
669.825	75.38783
670.015	72.34223
670.206	61.89535
670.396	74.42782
670.586	64.48829
670.777	68.2874
670.967	56.54286
671.157	63.93496
671.347	63.0526
671.538	74.47371
671.728	70.18001
671.918	76.59251
672.108	70.59762
672.299	65.54516
672.489	69.85718
672.679	63.15422
672.869	70.43721
673.059	80.39528
673.249	68.2602
673.44	60.89657
673.63	66.77816
673.82	72.71683
674.01	61.62583
674.2	67.44697
674.39	83.53608
674.58	72.66837
674.77	67.93597
674.96	65.21554
675.15	88.86485
675.34	75.0598
675.53	65.0418
675.72	67.45123
675.91	58.52962
676.099	79.06516
676.289	79.82043
676.479	74.95858
676.669	63.03259
676.859	69.16031
677.049	63.46088
677.238	67.29345
677.428	77.2975
677.618	70.29211
677.808	77.28784
677.997	69.23794
678.187	60.75614
678.377	67.27131
678.567	63.01734
678.756	65.38979
678.946	63.5237
679.136	57.87697
679.325	61.88673
679.515	58.58935
679.704	59.24895
679.894	70.04462
680.084	68.00877
680.273	72.91296
680.463	63.36843
680.652	62.70261
680.842	66.90517
681.031	73.62937
681.221	64.53545
681.41	71.71133
681.6	68.31511
681.789	73.19474
681.978	78.16774
682.168	72.36452
682.357	69.45544
682.547	74.37051
682.736	72.24644
682.925	79.35022
683.115	77.89624
683.304	75.00408
683.493	74.15353
683.682	75.42181
683.872	74.48737
684.061	78.58112
684.25	74.78192
684.439	81.35175
684.629	75.75376
684.818	92.81379
685.007	70.93788
685.196	71.63554
685.385	82.18166
685.574	73.80176
685.763	74.92353
685.952	75.39925
686.142	66.9825
686.331	82.78165
686.52	59.74618
686.709	83.74619
686.898	81.2766
687.087	77.41098
687.276	85.99479
687.465	79.8362
687.654	71.426
687.842	83.23505
688.031	66.33774
688.22	82.49044
688.409	75.91126
688.598	74.3027
688.787	92.67243
688.976	72.74373
689.165	88.53003
689.353	71.02962
689.542	77.61828
689.731	80.1422
689.92	91.60615
690.108	80.20128
690.297	74.11881
690.486	75.38638
690.675	81.87289
690.863	87.85634
691.052	89.334
691.241	78.3252
691.429	78.33317
691.618	85.86415
691.806	69.67313
691.995	74.90611
692.184	79.24003
692.372	74.64162
692.561	81.85739
692.749	76.94596
692.938	100.84581
693.126	81.96937
693.315	75.78706
693.503	84.68054
693.692	85.70957
693.88	86.19704
694.068	93.51541
694.257	77.61102
694.445	83.66767
694.634	62.95972
694.822	86.3936
695.01	88.64061
695.199	88.52795
695.387	90.96286
695.575	89.40932
695.763	78.70389
695.952	76.72512
696.14	68.40162
696.328	75.51999
696.516	80.10431
696.705	81.12438
696.893	79.40092
697.081	63.01609
697.269	81.64372
697.457	67.35552
697.645	65.9507
697.833	78.43661
698.021	66.03474
698.21	70.32191
698.398	72.04106
698.586	64.70592
698.774	66.10226
698.962	72.49464
699.15	68.61464
699.338	66.34082
699.526	80.05035
699.714	74.34065
699.901	72.50883
700.089	84.1239
700.277	73.23098
700.465	77.29994
700.653	86.12999
700.841	84.04781
701.029	74.69708
701.217	94.15646
701.404	85.6826
701.592	95.35115
701.78	100.13953
701.968	78.84245
702.155	79.46018
702.343	70.86004
702.531	95.42253
702.718	87.0075
702.906	80.56242
703.094	79.17477
703.281	97.27684
703.469	85.81913
703.657	92.06358
703.844	110.21933
704.032	100.11256
704.219	77.50698
704.407	90.77114
704.595	96.0825
704.782	86.28976
704.97	81.23831
705.157	80.53053
705.345	96.56645
705.532	113.44894
705.719	90.20874
705.907	101.31513
706.094	84.33401
706.282	106.05359
706.469	84.57302
706.656	86.84085
706.844	84.38121
707.031	90.63137
707.218	89.98252
707.406	102.26294
707.593	93.03351
707.78	93.01042
707.968	85.47399
708.155	80.61883
708.342	92.72515
708.529	91.47976
708.716	92.85968
708.904	100.70078
709.091	92.66943
709.278	78.22698
709.465	109.67965
709.652	103.37235
709.839	99.43256
710.026	90.39957
710.213	75.1072
710.4	92.96569
710.587	93.64302
710.774	100.91598
710.961	101.34641
711.148	91.85743
711.335	100.35755
711.522	90.76132
711.709	92.17001
711.896	111.37563
712.083	100.37283
712.27	85.673
712.457	90.78295
712.644	75.59286
712.831	110.68223
713.017	91.58242
713.204	96.77954
713.391	83.32357
713.578	104.21102
713.765	103.54075
713.951	95.36154
714.138	123.42513
714.325	95.13696
714.512	94.37282
714.698	82.95414
714.885	103.58919
715.072	91.55084
715.258	92.74678
715.445	82.22957
715.631	107.32293
715.818	67.86751
716.005	87.42499
716.191	96.97417
716.378	88.64713
716.564	101.54045
716.751	85.70516
716.937	92.14258
717.124	106.41889
717.31	87.89474
717.497	121.4666
717.683	88.24374
717.869	128.60103
718.056	90.17062
718.242	103.14832
718.429	95.95634
718.615	86.68
718.801	98.39912
718.988	110.83795
719.174	103.9778
719.36	99.85111
719.547	112.48694
719.733	101.6897
719.919	102.27779
720.105	115.59326
720.291	98.1545
720.478	106.48519
720.664	101.68888
720.85	93.78184
721.036	136.93359
721.222	121.32282
721.408	104.0103
721.595	129.55676
721.781	116.87429
721.967	118.60965
722.153	122.68654
722.339	117.76628
722.525	107.59404
722.711	90.19345
722.897	90.089
723.083	102.38865
723.269	116.62799
723.455	138.63185
723.641	149.64075
723.827	111.34886
724.012	108.35152
724.198	100.98207
724.384	123.85413
724.57	111.47832
724.756	83.10376
724.942	85.96748
725.127	122.00928
725.313	123.93778
725.499	121.25014
725.685	136.6133
725.87	107.36945
726.056	93.01362
726.242	120.39857
726.428	84.50706
726.613	118.79848
726.799	100.76839
726.985	87.27226
727.17	82.88298
727.356	133.07982
727.541	94.14594
727.727	101.59315
727.913	115.17162
728.098	94.76302
728.284	114.31657
728.469	89.55941
728.655	92.82317
728.84	112.16562
729.026	114.99949
729.211	113.98339
729.397	106.36124
729.582	114.34036
729.767	102.75545
729.953	103.85084
730.138	120.10091
730.323	77.10231
730.509	93.15224
730.694	131.15968
730.879	113.80557
731.065	106.24203
731.25	137.91898
731.435	111.09887
731.621	85.72298
731.806	94.15633
731.991	105.76864
732.176	86.66115
732.361	121.92703
732.547	112.81717
732.732	83.32977
732.917	135.23617
733.102	88.46507
733.287	95.43089
733.472	107.36439
733.657	107.54222
733.842	89.54719
734.027	101.52906
734.212	105.70369
734.397	92.81338
734.582	112.03774
734.767	119.10462
734.952	129.75173
735.137	70.81503
735.322	136.65142
735.507	110.63298
735.692	112.53104
735.877	144.97611
736.062	141.87033
736.247	121.55746
736.431	114.25594
736.616	129.0771
736.801	113.4925
736.986	116.52779
737.171	99.95154
737.355	93.59216
737.54	131.17421
737.725	106.72635
737.909	154.30179
738.094	104.94151
738.279	128.26389
738.463	106.35344
738.648	124.59804
738.833	115.12867
739.017	143.05233
739.202	108.57213
739.386	114.85268
739.571	97.71433
739.756	123.04227
739.94	118.26888
740.125	130.12836
740.309	99.26994
740.494	130.48029
740.678	116.43165
740.863	118.49567
741.047	114.59343
741.231	135.7695
741.416	100.61704
741.6	146.99427
741.785	104.53373
741.969	130.14842
742.153	140.42814
742.338	80.63324
742.522	118.43757
742.706	133.67967
742.89	95.31132
743.075	127.99448
743.259	148.11839
743.443	136.05277
743.627	148.48382
743.812	167.76745
743.996	86.46866
744.18	117.90969
744.364	111.83316
744.548	162.67254
744.732	115.81299
744.916	140.88582
745.1	138.86
745.285	115.00908
745.469	140.66248
745.653	157.16029
745.837	96.91216
746.021	166.47061
746.205	135.86465
746.389	129.20726
746.573	119.68888
746.757	157.94409
746.94	113.01286
747.124	155.88604
747.308	105.94292
747.492	142.55069
747.676	112.01626
747.86	167.73258
748.044	113.02907
748.227	86.81017
748.411	206.84336
748.595	127.33845
748.779	110.58709
748.963	133.37754
749.146	120.49084
749.33	116.62411
749.514	98.64563
749.697	153.19958
749.881	115.19774
750.065	108.17223
750.248	121.13907
750.432	176.10756
750.616	123.76543
750.799	105.27462
750.983	167.19823
751.166	182.94867
751.35	98.7592
751.533	144.4626
751.717	155.13757
751.9	159.45971
752.084	112.48738
752.267	107.88561
752.451	120.65283
752.634	131.3637
752.818	131.67061
753.001	145.60357
753.184	146.25273
753.368	139.21049
753.551	54.43646
753.734	114.84202
753.918	164.12133
754.101	111.10275
754.284	148.11974
754.467	120.35169
754.651	110.49533
754.834	115.86714
755.017	161.08177
755.2	150.34561
755.384	103.421
755.567	146.67447
755.75	152.23542
755.933	117.84979
756.116	130.24702
756.299	123.56618
756.482	113.72934
756.665	147.80135
756.848	120.72235
757.032	141.82447
757.215	92.79225
757.398	113.79613
757.581	108.52233
757.764	189.61494
757.947	122.20394
758.129	160.60352
758.312	61.09778
758.495	126.01766
758.678	126.58414
758.861	121.0437
759.044	190.1052
759.227	108.66111
759.41	112.9824
759.592	147.39307
759.775	135.26059
759.958	153.77971
760.141	106.17996
760.324	182.95506
760.506	158.54106
760.689	156.39655
760.872	190.48898
761.054	147.28013
761.237	135.50082
761.42	135.41469
761.602	144.70646
761.785	144.71996
761.968	150.27732
762.15	162.31327
762.333	118.96692
762.515	129.47178
762.698	116.12084
762.88	129.20424
763.063	119.42337
763.245	128.69366
763.428	96.23463
763.61	99.01623
763.793	88.34836
763.975	119.81521
764.158	104.65082
764.34	98.94135
764.522	97.87061
764.705	115.97882
764.887	154.37135
765.069	91.63952
765.252	144.27727
765.434	139.33433
765.616	129.01583
765.799	112.92235
765.981	145.64969
766.163	112.19758
766.345	160.53641
766.528	116.60595
766.71	82.04351
766.892	134.22789
767.074	159.52722
767.256	127.39421
767.438	180.66297
767.62	144.70799
767.802	200.94549
767.985	149.28991
768.167	209.52214
768.349	129.48448
768.531	168.28914
768.713	156.67214
768.895	164.28549
769.077	151.16176
769.259	239.66605
769.441	285.90811
769.623	170.31129
769.804	217.22069
769.986	197.26229
770.168	241.03462
770.35	267.24721
770.532	191.54202
770.714	216.19233
770.896	226.63127
771.077	142.90381
771.259	247.64863
771.441	235.31614
771.623	241.15185
771.804	326.58215
771.986	125.86022
772.168	169.95432
772.35	224.74384
772.531	302.02054
772.713	189.79536
772.894	287.11332
773.076	170.90935
773.258	186.46542
773.439	273.56886
773.621	259.90501
773.802	157.07485
773.984	182.41196
774.166	217.13625
774.347	298.73611
774.529	241.32165
774.71	101.03084
774.891	182.13456
775.073	171.27116
775.254	307.3212
775.436	177.42916
775.617	312.21195
775.799	207.96625
775.98	304.42826
776.161	298.05658
776.343	267.709
776.524	173.39191
776.705	208.46609
776.886	114.31986
777.068	205.33832
777.249	356.8285
777.43	278.72043
777.611	151.80532
777.793	206.44706
777.974	278.08563
778.155	171.12433
778.336	148.32994
778.517	279.31264
778.698	159.10061
778.879	136.56261
779.061	73.76453
779.242	236.89639
779.423	254.98196
779.604	155.95151
779.785	192.0519
779.966	231.29326
780.147	234.06071
780.328	270.7458
780.509	321.83285
780.69	245.51417
780.871	160.63049
781.051	128.34952
781.232	209.36707
781.413	205.69857
781.594	210.70663
781.775	163.77427
781.956	154.55701
782.137	112.82851
782.317	171.40441
782.498	212.39493
782.679	201.69465
782.86	211.86522
783.04	169.49028
783.221	209.86315
783.402	279.49546
783.583	184.64532
783.763	235.35955
783.944	181.74769
784.124	125.20553
784.305	299.12882
784.486	245.51545
784.666	206.36992
784.847	126.32908
785.027	422.25984
785.208	167.34097
785.388	169.35287
785.569	171.3524
785.749	191.20291
785.93	182.36
786.11	126.78188
786.291	242.86349
786.471	248.97411
786.652	239.77062
786.832	191.15924
787.012	226.30628
787.193	147.85992
787.373	194.76205
787.553	176.56551
787.734	200.68819
787.914	173.13852
788.094	241.01837
788.275	191.81557
788.455	165.21383
788.635	143.97311
788.815	189.76538
788.995	135.38946
789.176	126.03554
789.356	149.39102
789.536	199.60482
789.716	217.07995
789.896	159.98109
790.076	160.10633
790.256	204.66032
790.436	93.30283
790.616	146.38607
790.796	214.3054
790.976	166.76591
791.156	148.7667
791.336	242.84857
791.516	217.50041
791.696	192.0575
791.876	126.01205
792.056	206.08009
792.236	260.587
792.416	223.43726
792.596	226.30162
792.776	217.95383
792.956	241.4337
793.135	263.62686
793.315	135.72957
793.495	267.47111
793.675	230.43584
793.854	224.65115
794.034	239.94622
794.214	139.34739
794.394	270.91372
794.573	248.31069
794.753	196.07119
794.933	154.94869
795.112	233.18542
795.292	242.57056
795.472	312.64881
795.651	139.4988
795.831	207.45774
796.01	173.55596
796.19	181.01956
796.369	194.15548
796.549	221.53365
796.728	174.02152
796.908	130.39301
797.087	147.23764
797.267	198.86928
797.446	155.30868
797.626	212.02825
797.805	227.81488
797.984	149.23777
798.164	220.09215
798.343	150.74104
798.522	211.90136
798.702	201.15393
798.881	145.12545
799.06	193.11117
799.239	107.93954
799.419	178.04151
799.598	274.62369
799.777	227.56439
799.956	279.56753
800.136	170.83602
800.315	154.47398
800.494	216.45139
800.673	239.9743
800.852	243.76871
801.031	260.50103
801.21	249.30389
801.389	190.44116
801.568	216.25717
801.747	333.96149
801.926	233.34732
802.105	306.03939
802.284	165.9147
802.463	299.17982
802.642	203.71464
802.821	214.38502
803	319.52306
803.179	238.98848
803.358	296.71817
803.537	169.60162
803.716	227.92318
803.895	191.78245
804.073	202.00026
804.252	203.54933
804.431	252.30288
804.61	239.21738
804.789	244.70406
804.967	161.44178
805.146	167.21046
805.325	360.41873
805.503	277.58368
805.682	144.85334
805.861	413.73479
806.039	276.25465
806.218	177.42825
806.397	224.77807
806.575	216.70865
806.754	215.54203
806.932	141.81739
807.111	296.01148
807.289	267.9635
807.468	219.68158
807.646	284.02032
807.825	207.50672
808.003	237.41456
808.182	291.85187
808.36	227.29132
808.539	171.55793
808.717	365.46475
808.895	164.93401
809.074	227.97639
809.252	215.644
809.43	333.54426
809.609	312.39785
809.787	344.10599
809.965	267.8023
810.144	251.57554
810.322	216.45226
810.5	344.40079
810.678	248.90392
810.856	406.79297
811.035	353.42357
811.213	248.68872
811.391	267.08374
811.569	241.92195
811.747	380.3036
811.925	306.40828
812.103	201.62872
812.281	239.85905
812.459	411.11386
812.637	379.31314
812.816	314.03995
812.994	340.67963
813.171	349.99595
813.349	295.05355
813.527	325.28757
813.705	387.94082
813.883	313.2926
814.061	426.23755
814.239	343.34006
814.417	435.10984
814.595	301.62308
814.773	332.32166
814.95	303.41315
815.128	292.61376
815.306	295.96516
815.484	260.55578
815.662	218.21961
815.839	186.56252
816.017	211.95372
816.195	297.38724
816.372	231.26698
816.55	298.14363
816.728	402.09774
816.905	212.261
817.083	340.37535
817.261	243.65043
817.438	491.54143
817.616	387.73092
817.793	260.88306
817.971	321.36207
818.148	275.58912
818.326	303.85604
818.503	244.77616
818.681	427.62974
818.858	198.91285
819.036	223.29323
819.213	253.10025
819.391	170.22954
819.568	160.84494
819.745	173.48092
819.923	239.27821
820.1	166.91573
820.277	148.81439
820.455	160.79726
820.632	167.71909
820.809	179.16492
820.986	128.84185
821.164	105.62633
821.341	92.93616
821.518	111.76431
821.695	89.1464
821.872	84.83736
822.05	77.38158
822.227	71.43767
822.404	73.21688
822.581	81.48088
822.758	75.26836
822.935	77.03601
823.112	83.02176
823.289	78.30046
823.466	89.10563
823.643	88.95886
823.82	98.13586
823.997	97.84682
824.174	108.13564
824.351	129.85285
824.528	126.41243
824.705	119.78003
824.882	125.94062
825.059	155.83329
825.236	125.28364
825.412	137.12967
825.589	144.49815
825.766	186.09304
825.943	126.89383
826.12	141.71849
826.296	107.13775
826.473	126.45761
826.65	116.92021
826.827	129.88933
827.003	101.41928
827.18	108.64938
827.357	118.05148
827.533	108.57172
827.71	81.81562
827.887	105.16931
828.063	112.97487
828.24	106.06473
828.416	129.87669
828.593	126.17832
828.769	157.85655
828.946	185.29424
829.122	193.01432
829.299	197.4885
829.475	144.18363
829.652	181.07198
829.828	278.83118
830.005	225.40557
830.181	295.99492
830.357	202.53415
830.534	285.97917
830.71	233.1726
830.886	285.25246
831.063	244.50294
831.239	336.87414
831.415	152.93961
831.592	327.90999
831.768	268.70252
831.944	168.89909
832.12	300.91934
832.296	275.22378
832.473	234.14712
832.649	167.5853
832.825	205.38782
833.001	144.62356
833.177	171.38624
833.353	162.61295
833.529	104.1463
833.705	140.89966
833.881	111.82919
834.058	109.24627
834.234	116.85494
834.41	118.67604
834.586	107.6351
834.761	121.47775
834.937	134.06724
835.113	141.08997
835.289	144.24223
835.465	153.65514
835.641	155.26339
835.817	171.47884
835.993	283.93401
836.169	146.18541
836.344	239.98566
836.52	281.87222
836.696	287.48715
836.872	213.0002
837.048	635.00083
837.223	275.70342
837.399	413.57339
837.575	296.95754
837.75	394.50751
837.926	425.13228
838.102	576.76354
838.277	550.15186
838.453	994.20451
838.628	765.59475
838.804	419.08256
838.98	820.60066
839.155	474.27556
839.331	642.10855
839.506	312.65909
839.682	282.47833
839.857	354.06082
840.033	363.62125
840.208	198.5218
840.384	113.22597
840.559	250.90808
840.734	326.64011
840.91	382.1574
841.085	340.69356
841.26	360.60331
841.436	307.35675
841.611	356.09975
841.786	397.65449
841.962	791.54592
842.137	599.87574
842.312	356.82955
842.487	498.5344
842.663	472.02106
842.838	435.87214
843.013	1903.31657
843.188	727.83771
843.363	475.50559
843.538	1083.13606
843.714	1553.43153
843.889	792.01861
844.064	891.23174
844.239	604.93408
844.414	2990.16109
844.589	887.78393
844.764	2125.05403
844.939	1193.26938
845.114	1294.78894
845.289	1251.4392
845.464	2451.96892
845.639	1026.54384
845.814	1992.37104
845.989	1594.34937
846.163	786.59552
846.338	956.27674
846.513	1321.19268
846.688	597.69228
846.863	1070.47448
847.038	1695.68601
847.212	627.09535
847.387	822.5952
847.562	3577.09917
847.737	3857.87654
847.911	646.702
848.086	665.04284
848.261	1378.67706
848.435	535.13109
848.61	1076.13317
848.785	791.94742
848.959	1220.85573
849.134	1818.32275
849.308	6143.98517
849.483	2668.59892
849.658	-34148.17933
849.832	992.71117
850.007	576.77344
850.181	5543.92514
850.356	-2205.79124
850.53	2068.9567
850.705	825.96359
850.879	606.25576
851.053	983.75033
851.228	1778.06215
851.402	1322.30019
851.577	759.10388
851.751	1414.03958
851.925	1066.23204
852.099	887.90597
852.274	1164.20278
852.448	3464.21108
852.622	2540.22405
852.797	1049.08975
852.971	1167.04392
853.145	1278.64991
853.319	2219.81073
853.493	7081.253
853.668	1086.27601
853.842	6131.35573
854.016	1349.44026
854.19	1603.66816
854.364	1078.29855
854.538	1094.09089
854.712	84936.91314
854.886	601.31442
855.06	1143.32028
855.234	372.21662
855.408	992.40496
855.582	1625.37575
855.756	-41303.39146
855.93	1675.03399
856.104	7039.38526
856.278	1945.42453
856.452	997.56407
856.626	1245.17705
856.8	1465.74993
856.973	1270.83339
857.147	3697.37033
857.321	2178.24932
857.495	1821.65661
857.669	989.39712
857.842	1658.62603
858.016	1794.49215
858.19	-2454.88169
858.364	2935.67229
858.537	2451.54959
858.711	1078.70746
858.885	2785.07172
859.058	1786.22977
859.232	6276.89637
859.405	799.03239
859.579	822.66641
859.753	2027.53985
859.926	916.55865
860.1	3883.94069
860.273	12173.96699
860.447	1072.64659
860.62	1256.85314
860.794	1815.26482
860.967	3798.03182
861.141	1229.67998
861.314	4643.66617
861.487	1467.52354
861.661	2068.69929
861.834	5938.96008
862.008	4767.84978
862.181	-17993.84779
862.354	-13242.98332
862.528	1183.0029
862.701	2479.0607
862.874	612.06659
863.047	1913.48404
863.221	904.35617
863.394	639.28262
863.567	823.83678
863.74	656.65335
863.913	1469.22125
864.087	4358.31558
864.26	2404.53499
864.433	1594.07141
864.606	1344.04253
864.779	-3157.90796
864.952	846.87138
865.125	-44706.94398
865.298	1603.31531
865.471	-2036.76807
865.644	4561.52055
865.817	1177.79661
865.99	1565.20625
866.163	1708.97114
866.336	1257.2387
866.509	4094.52596
866.682	-1975.87434
866.855	9315.22727
867.028	385.26307
867.2	1548.512
867.373	205.67931
867.546	1604.26585
867.719	3276.80101
867.892	3212.21227
868.064	771.08864
868.237	1015.16116
868.41	2514.52258
868.583	847.51597
868.755	701.76203
868.928	1601.67758
869.101	1686.07141
869.273	2003.64861
869.446	1318.70255
869.619	1449.14497
869.791	1329.87219
869.964	6889.06826
870.136	-3315.41484
870.309	-14271.54558
870.481	825.47205
870.654	491.1756
870.826	1103.13872
870.999	529.72384
871.171	1172.31618
871.344	706.02282
871.516	756.54719
871.689	874.82472
871.861	926.94459
872.033	3297.13255
872.206	872.72446
872.378	1547.7407
872.55	3110.69526
872.723	-1242.10801
872.895	1313.3353
873.067	1536.59686
873.24	1208.63941
873.412	3458.26296
873.584	2757.85847
873.756	1265.56468
873.928	1552.21294
874.101	1713.83749
874.273	1791.46999
874.445	384.30273
874.617	1178.86117
874.789	691.22449
874.961	1217.75294
875.133	1376.83018
875.305	1130.91946
875.477	1137.23675
875.649	468.57305
875.821	1058.88345
875.993	1324.62071
876.165	2338.46576
876.337	869.10637
876.509	1108.48168
876.681	869.6914
876.853	783.15595
877.025	1062.66868
877.197	774.03506
877.369	842.52443
877.541	943.89218
877.712	446.99663
877.884	496.93567
878.056	2375.18968
878.228	641.33806
878.4	892.15737
878.571	612.62459
878.743	381.02662
878.915	714.72397
879.086	338.82758
879.258	509.1096
879.43	383.12456
879.601	361.61788
879.773	341.99331
879.945	108.85531
880.116	131.87946
880.288	101.70721
880.459	97.26032
880.631	88.04541
880.802	98.27508
880.974	89.12834
881.145	73.969
881.317	89.1967
881.488	78.30811
881.66	83.38368
881.831	79.99762
882.002	93.49882
882.174	83.82234
882.345	97.47829
882.517	77.47971
882.688	116.17488
882.859	105.9863
883.03	146.67007
883.202	146.46774
883.373	138.22611
883.544	151.73874
883.715	219.85412
883.887	208.14787
884.058	178.04414
884.229	256.86821
884.4	252.21877
884.571	269.23564
884.742	226.9966
884.914	316.86677
885.085	412.77479
885.256	538.05768
885.427	341.93931
885.598	450.64367
885.769	433.76042
885.94	559.28634
886.111	396.65497
886.282	565.25171
886.453	700.24535
886.624	525.93671
886.795	797.31549
886.966	839.68957
887.136	1400.02213
887.307	740.09943
887.478	916.30253
887.649	788.23853
887.82	1756.40275
887.991	612.58605
888.161	1315.47276
888.332	1158.43099
888.503	480.45166
888.674	1447.84445
888.844	1369.42706
889.015	-95232.57814
889.186	1024.75791
889.356	1299.07091
889.527	-17949.41594
889.698	3041.06097
889.868	1461.3941
890.039	1078.00212
890.209	1249.37473
890.38	864.97367
890.551	1456.98178
890.721	1351.56501
890.892	983.7506
891.062	2708.35801
891.233	1164.11213
891.403	1082.50574
891.574	1826.18703
891.744	2966.69629
891.914	672.98562
892.085	2252.44074
892.255	253.51754
892.425	1406.32809
892.596	1163.97309
892.766	821.92332
892.936	1142.8099
893.107	835.63945
893.277	679.81499
893.447	1205.02531
893.618	528.61186
893.788	538.91448
893.958	306.1271
894.128	267.16784
894.298	360.78382
894.468	381.6081
894.639	180.37298
894.809	144.72712
894.979	194.68264
895.149	244.81872
895.319	215.56083
895.489	271.37813
895.659	392.80158
895.829	248.52356
895.999	281.92586
896.169	282.87996
896.339	401.89475
896.509	768.31206
896.679	738.67228
896.849	1079.77067
897.019	865.65289
897.189	3916.81614
897.358	672.21006
897.528	2589.00436
897.698	-5880.75392
897.868	695.11536
898.038	2259.22388
898.208	2008.16253
898.377	663.26819
898.547	5380.83827
898.717	4212.45754
898.886	922.12869
899.056	2347.54819
899.226	4404.0282
899.395	-6203.18705
899.565	-7265.22092
899.735	-6142.34512
899.904	9139.71862
900.074	18543.35554
900.244	2665.68144
900.413	8236.54433
900.583	-772.25621
900.752	-1042.77676
900.922	1411.38118
901.091	95.82956
901.261	1518.4923
901.43	3205.94046
901.599	1338.78477
901.769	2073.10998
901.938	7671.96124
902.108	982.38747
902.277	3050.35035
902.446	1981.15973
902.616	924.56733
902.785	2690.43766
902.954	1993.14262
903.124	1160.25581
903.293	798.71103
903.462	381.25363
903.631	567.37065
903.801	314.73828
903.97	196.03788
904.139	288.62855
904.308	201.09036
904.477	196.47393
904.646	115.17382
904.816	199.65532
904.985	335.11567
905.154	401.5265
