Data from WindowProjectSample_Transmission__9__00009.txt Node

Date: Sat May 03 15:02:31 EDT 2025
User: jessi
Spectrometer: SR400872
Trigger mode: 0
Integration Time (sec): 5.000010E-1
Scans to average: 6
Electric dark correction enabled: true
Nonlinearity correction enabled: true
Boxcar width: 0
XAxis mode: Wavelengths
Number of Pixels in Spectrum: 3648
>>>>>Begin Spectral Data<<<<<
184.909	18396.12933
185.132	2565.245
185.355	23066.38657
185.578	-8099.38357
185.801	359.47459
186.024	-1453.44479
186.247	705.81243
186.47	1978.52531
186.693	-110.1392
186.916	-1849.697
187.139	-2650.34531
187.362	1639.05484
187.585	2864.07966
187.808	-3405.8621
188.031	-1131.59534
188.254	-1189.05607
188.476	-843.41676
188.699	2470.14308
188.922	-794.41359
189.145	-9859.75413
189.368	-442.51031
189.591	-1064.76611
189.813	-1834.12076
190.036	1221.32668
190.259	1892.17821
190.482	658.52923
190.705	11158.70095
190.927	-1077.27556
191.15	3600.37291
191.373	2426.60262
191.595	-2255.26023
191.818	2483.94606
192.041	-261.22629
192.263	2638.37958
192.486	1850.37209
192.709	-5584.69489
192.931	2655.38159
193.154	-6218.83746
193.377	189550.98729
193.599	1449.08359
193.822	1792.25922
194.044	-2181.88318
194.267	479.48353
194.489	-199.52343
194.712	1475.92977
194.934	3415.61188
195.157	-10790.89431
195.379	819.52376
195.602	2279.8028
195.824	2126.73668
196.047	2525.08259
196.269	3120.81354
196.492	3404.45881
196.714	2783.62709
196.936	1219.1045
197.159	1358.6333
197.381	-2672.53578
197.604	-1066.52049
197.826	6626.2124
198.048	2926.21209
198.271	4251.95716
198.493	2204.55782
198.715	-5950.56929
198.938	-463.12986
199.16	1870.1901
199.382	1462.47134
199.604	-651.66418
199.827	9167.11083
200.049	914.74482
200.271	-3047.755
200.493	-50646.01108
200.715	2231.66212
200.938	6864.80633
201.16	-7089.59636
201.382	-3034.44454
201.604	-2038.80875
201.826	6794.23775
202.048	912.14195
202.27	-17118.55378
202.492	4846.44856
202.715	-1080.04237
202.937	4466.06785
203.159	-2184.61811
203.381	991.56292
203.603	-3972.40612
203.825	-3026.93845
204.047	3372.38743
204.269	-2260.68049
204.491	2041.30487
204.713	1898.99417
204.935	15399.0321
205.156	1793.94653
205.378	-7909.76111
205.6	-4097.63367
205.822	8902.48399
206.044	-821.52671
206.266	4008.91185
206.488	982.60345
206.71	27120.65853
206.932	2290.8531
207.153	-4764.56827
207.375	-1971.15547
207.597	8680.60375
207.819	4260.74011
208.041	2391.45248
208.262	-2675.68021
208.484	-1064.84547
208.706	-2679.23907
208.927	28590.79643
209.149	941.51154
209.371	-6719.42291
209.593	1390.46119
209.814	4635.55872
210.036	-3075.31042
210.258	-5605.00091
210.479	-1193.9141
210.701	1012.47217
210.922	7080.5104
211.144	-1064.06733
211.366	-6500.5176
211.587	-594.80932
211.809	10052.89232
212.03	-1289.70526
212.252	-1821.82631
212.473	809.59143
212.695	-2476.23628
212.916	2710.12463
213.138	2804.14543
213.359	-1770.39025
213.581	5800.69294
213.802	-1693.23115
214.024	18019.59562
214.245	-3117.45206
214.466	-643.96302
214.688	1679.9565
214.909	993.93416
215.131	-93462.49237
215.352	1671.65083
215.573	2486.3797
215.795	2899.02111
216.016	4174.28245
216.237	-565.34725
216.459	6895.60161
216.68	103983.6799
216.901	-83050.91699
217.122	1820.47801
217.344	5895.27145
217.565	-57867.74283
217.786	1535.30828
218.007	1410.88715
218.228	-1100.39177
218.45	-1298.26035
218.671	-1168.47589
218.892	1186.09167
219.113	-18918.48171
219.334	-352.04699
219.555	-5148.56651
219.776	1650.35409
219.997	3309.04681
220.219	1073.53461
220.44	2454.1219
220.661	-3417.74048
220.882	3669.42221
221.103	-1245.08246
221.324	909.95025
221.545	2330.83438
221.766	-5863.74368
221.987	3679.00435
222.208	-1647.56682
222.429	3485.64812
222.65	-163.15785
222.87	-661.4676
223.091	7931.28987
223.312	2373.70877
223.533	6501.10144
223.754	1803.18419
223.975	1448.62189
224.196	-10880.64124
224.417	1068.61684
224.637	938.80511
224.858	-228.76567
225.079	6750.83054
225.3	613.10041
225.521	2101.70424
225.741	1420.66682
225.962	748.3663
226.183	228.75388
226.404	660.9379
226.624	595.66297
226.845	355.75319
227.066	390.11523
227.286	204.04263
227.507	90.03323
227.728	78.06456
227.948	125.39809
228.169	38.84514
228.389	47.38446
228.61	23.79595
228.831	34.9642
229.051	2.71795
229.272	21.70901
229.492	30.81827
229.713	10.3997
229.933	23.16494
230.154	19.54736
230.374	31.72324
230.595	23.95283
230.815	14.33465
231.036	23.78938
231.256	-5.74045
231.477	42.38721
231.697	23.95704
231.917	22.65528
232.138	37.6871
232.358	78.58128
232.579	64.44622
232.799	13.34397
233.019	65.30373
233.24	77.30681
233.46	26.49043
233.68	42.57401
233.901	34.64185
234.121	20.23114
234.341	5.78516
234.561	-0.9632
234.782	15.62325
235.002	44.67816
235.222	-0.03061
235.442	39.69834
235.662	20.37218
235.883	41.73982
236.103	38.75916
236.323	25.39335
236.543	19.33273
236.763	26.99641
236.983	27.50152
237.203	28.40252
237.423	41.13456
237.643	61.13208
237.864	51.98599
238.084	13.4512
238.304	22.81086
238.524	33.89426
238.744	26.60648
238.964	47.96959
239.184	45.46005
239.404	44.98447
239.624	24.90909
239.843	41.57326
240.063	23.24526
240.283	15.94996
240.503	17.31236
240.723	15.83907
240.943	8.79753
241.163	14.03087
241.383	11.35619
241.603	5.1405
241.822	6.20878
242.042	4.6557
242.262	6.01074
242.482	6.58585
242.702	8.60323
242.921	2.18341
243.141	5.86957
243.361	4.60403
243.581	7.95917
243.8	5.97123
244.02	4.20764
244.24	7.56716
244.459	7.0101
244.679	14.25568
244.899	8.80068
245.118	10.44674
245.338	7.90815
245.558	11.08127
245.777	6.28894
245.997	7.0584
246.216	7.32077
246.436	4.12899
246.655	3.43231
246.875	2.40078
247.094	4.92063
247.314	1.68369
247.533	2.71908
247.753	3.27709
247.972	2.69009
248.192	1.10528
248.411	1.77852
248.631	3.20675
248.85	4.00195
249.07	2.73696
249.289	5.21367
249.508	3.82991
249.728	6.24781
249.947	6.32112
250.166	6.71964
250.386	3.95552
250.605	5.69149
250.824	7.94218
251.044	6.11263
251.263	20.15509
251.482	10.43412
251.701	9.71922
251.921	0.19572
252.14	2.91483
252.359	3.11283
252.578	7.98897
252.798	2.52125
253.017	8.0912
253.236	3.74631
253.455	5.21544
253.674	9.73872
253.893	4.42403
254.112	6.32909
254.331	9.57824
254.551	7.35234
254.77	3.71423
254.989	11.74018
255.208	9.90402
255.427	12.49388
255.646	10.92381
255.865	17.77197
256.084	7.01965
256.303	7.68051
256.522	12.05191
256.741	2.4319
256.96	3.37309
257.179	8.33809
257.397	8.66521
257.616	4.6367
257.835	4.8626
258.054	11.86477
258.273	7.51866
258.492	8.57369
258.711	5.53844
258.93	2.40802
259.148	3.10291
259.367	3.35729
259.586	4.13548
259.805	1.92364
260.023	4.11275
260.242	3.33053
260.461	2.25471
260.68	1.15457
260.898	3.82409
261.117	1.45553
261.336	0.91654
261.554	3.24699
261.773	3.03476
261.992	0.49802
262.21	3.14935
262.429	3.62366
262.648	6.28855
262.866	7.22843
263.085	4.63507
263.303	4.1566
263.522	7.28518
263.74	7.9121
263.959	12.71421
264.178	6.74236
264.396	5.83402
264.615	3.67482
264.833	10.10747
265.051	8.84161
265.27	8.39852
265.488	9.15807
265.707	6.2509
265.925	9.0364
266.144	4.27256
266.362	5.41212
266.58	5.40352
266.799	4.3807
267.017	5.08035
267.235	4.22332
267.454	2.69026
267.672	1.98614
267.89	3.54339
268.109	3.76216
268.327	4.06291
268.545	0.77579
268.763	3.85003
268.982	1.3898
269.2	4.25726
269.418	2.46541
269.636	1.91497
269.854	3.50647
270.073	2.80765
270.291	1.41303
270.509	1.60476
270.727	3.58964
270.945	6.18069
271.163	6.11817
271.381	1.61722
271.599	2.62169
271.817	4.36556
272.036	1.51061
272.254	2.59953
272.472	2.1897
272.69	1.96474
272.908	2.0817
273.126	3.84457
273.344	4.44827
273.562	1.61035
273.779	2.45287
273.997	3.27759
274.215	3.95294
274.433	2.72404
274.651	4.0694
274.869	4.26486
275.087	2.45971
275.305	3.94581
275.523	2.04394
275.74	2.89978
275.958	4.59377
276.176	6.8632
276.394	2.23432
276.612	2.60079
276.829	2.82101
277.047	2.06334
277.265	2.63484
277.483	3.32739
277.7	3.74261
277.918	3.23411
278.136	5.49827
278.353	2.71487
278.571	1.5823
278.789	4.17303
279.006	0.8042
279.224	2.36513
279.442	4.51815
279.659	3.01626
279.877	2.24935
280.094	4.90219
280.312	1.06862
280.529	2.82826
280.747	0.9784
280.964	2.36321
281.182	5.16493
281.399	2.23984
281.617	3.24524
281.834	2.31647
282.052	1.82512
282.269	2.59268
282.487	2.21808
282.704	1.78005
282.921	2.0945
283.139	2.92255
283.356	3.79248
283.574	3.3282
283.791	1.60257
284.008	4.88327
284.226	2.39845
284.443	2.90142
284.66	3.33623
284.877	2.95095
285.095	1.99297
285.312	1.43769
285.529	1.05281
285.746	0.84863
285.964	1.83364
286.181	1.24625
286.398	1.87737
286.615	2.40627
286.832	2.11062
287.05	0.80928
287.267	1.59197
287.484	1.82216
287.701	2.39517
287.918	2.41196
288.135	2.46888
288.352	1.26584
288.569	1.26875
288.786	1.98233
289.003	1.81137
289.22	2.45275
289.437	1.54542
289.654	2.65978
289.871	2.8799
290.088	2.73978
290.305	2.04067
290.522	1.64701
290.739	2.0851
290.956	2.80072
291.173	3.40462
291.39	3.12444
291.607	2.17797
291.824	1.81472
292.04	1.0598
292.257	2.72533
292.474	2.90317
292.691	1.69552
292.908	0.95529
293.125	1.7335
293.341	1.17775
293.558	4.65717
293.775	1.88655
293.992	1.95663
294.208	0.73941
294.425	1.16365
294.642	1.67752
294.858	2.76311
295.075	0.70091
295.292	1.68858
295.508	2.10495
295.725	3.42793
295.942	1.53327
296.158	1.10634
296.375	1.79946
296.591	1.41928
296.808	1.56358
297.024	1.68287
297.241	1.93362
297.458	2.10046
297.674	0.17151
297.891	1.71604
298.107	1.35097
298.323	1.04811
298.54	2.4971
298.756	1.12611
298.973	0.58129
299.189	2.67916
299.406	1.17571
299.622	2.69171
299.838	2.61675
300.055	2.55225
300.271	0.67817
300.487	0.92018
300.704	1.14115
300.92	0.56709
301.136	3.61893
301.353	2.58743
301.569	1.74359
301.785	2.18732
302.001	2.50236
302.218	2.1932
302.434	2.00682
302.65	0.60499
302.866	1.577
303.083	3.47696
303.299	3.38936
303.515	1.90385
303.731	1.97062
303.947	0.74
304.163	1.11565
304.379	2.05251
304.595	2.33225
304.812	1.27885
305.028	1.10359
305.244	1.4751
305.46	2.55074
305.676	2.55897
305.892	3.14033
306.108	1.78239
306.324	1.49449
306.54	3.39147
306.756	2.4215
306.972	2.18721
307.187	1.62909
307.403	3.06439
307.619	1.1526
307.835	2.58214
308.051	3.2241
308.267	0.56202
308.483	2.62339
308.699	2.20486
308.914	1.81964
309.13	1.65855
309.346	0.54626
309.562	0.95009
309.778	0.52241
309.993	2.27066
310.209	1.77903
310.425	0.81979
310.641	1.60813
310.856	0.72479
311.072	0.85495
311.288	1.58512
311.503	1.88436
311.719	0.41905
311.935	0.25752
312.15	1.9974
312.366	1.83912
312.581	2.25005
312.797	1.83531
313.013	2.30033
313.228	1.33045
313.444	1.7873
313.659	1.29682
313.875	2.1909
314.09	1.6976
314.306	2.70582
314.521	2.5466
314.737	2.25236
314.952	2.02487
315.168	1.66806
315.383	2.3701
315.599	1.68074
315.814	1.57581
316.029	2.60205
316.245	0.58787
316.46	0.59321
316.675	3.13587
316.891	3.57656
317.106	4.16967
317.321	2.35571
317.537	2.33784
317.752	2.53398
317.967	2.62122
318.183	1.36553
318.398	1.51527
318.613	2.64906
318.828	3.09355
319.043	2.7079
319.259	1.55237
319.474	2.20187
319.689	2.92094
319.904	0.61078
320.119	2.57767
320.334	2.24504
320.549	1.68506
320.765	2.90084
320.98	2.19341
321.195	2.91297
321.41	1.59576
321.625	2.5076
321.84	3.37205
322.055	3.59192
322.27	1.4344
322.485	0.88177
322.7	2.02587
322.915	3.01022
323.13	1.20671
323.345	3.364
323.56	2.78079
323.775	2.50931
323.989	2.34358
324.204	2.15442
324.419	2.60311
324.634	0.7649
324.849	1.86889
325.064	4.1006
325.279	2.90564
325.493	2.43421
325.708	2.87
325.923	1.33698
326.138	1.23505
326.352	3.28576
326.567	2.72801
326.782	1.58755
326.997	1.12671
327.211	2.42763
327.426	2.47298
327.641	1.55395
327.855	0.60441
328.07	2.26234
328.285	3.43202
328.499	1.7561
328.714	2.35858
328.928	2.56545
329.143	2.14415
329.358	2.88206
329.572	2.96577
329.787	3.03168
330.001	4.26387
330.216	0.70228
330.43	3.35782
330.645	3.50244
330.859	2.72836
331.074	1.55093
331.288	2.19908
331.503	2.96992
331.717	1.13183
331.931	1.91315
332.146	1.92252
332.36	3.49974
332.575	2.44932
332.789	2.05762
333.003	1.76393
333.218	2.60073
333.432	1.7979
333.646	2.68451
333.86	3.33204
334.075	3.52244
334.289	1.3942
334.503	1.22514
334.717	2.31739
334.932	2.47791
335.146	3.09468
335.36	1.76122
335.574	2.64607
335.788	2.47124
336.003	3.03817
336.217	2.66927
336.431	2.6784
336.645	1.51295
336.859	1.04917
337.073	1.73873
337.287	2.26655
337.501	1.12811
337.715	2.24418
337.929	2.64773
338.143	1.03058
338.357	1.97103
338.571	1.2077
338.785	2.32799
338.999	1.60271
339.213	1.73073
339.427	0.94989
339.641	2.91559
339.855	1.79523
340.069	1.48347
340.283	2.81857
340.497	3.4868
340.711	2.42677
340.924	1.49005
341.138	1.20368
341.352	0.87025
341.566	2.18236
341.78	0.91048
341.993	1.46134
342.207	1.00298
342.421	2.2095
342.635	2.09849
342.848	1.40472
343.062	0.34573
343.276	1.39572
343.49	3.78783
343.703	1.48337
343.917	2.67244
344.131	2.81299
344.344	1.3084
344.558	1.5385
344.771	1.21703
344.985	3.16538
345.199	3.13379
345.412	2.1526
345.626	2.13177
345.839	0.58724
346.053	1.14281
346.266	0.99132
346.48	2.64566
346.693	2.19461
346.907	2.42303
347.12	1.15429
347.334	2.14082
347.547	2.20771
347.76	1.70588
347.974	2.80219
348.187	2.23375
348.401	1.56118
348.614	1.38292
348.827	1.58203
349.041	2.4006
349.254	0.59842
349.467	1.61128
349.681	0.75531
349.894	1.50541
350.107	3.0126
350.32	3.08761
350.534	0.57586
350.747	1.48027
350.96	1.24088
351.173	1.38551
351.386	1.61208
351.6	1.48547
351.813	1.13392
352.026	1.85889
352.239	0.78975
352.452	1.64747
352.665	2.31588
352.878	1.68474
353.092	3.74125
353.305	2.27411
353.518	1.96031
353.731	0.98232
353.944	2.88352
354.157	1.19268
354.37	1.03381
354.583	0.85716
354.796	0.6505
355.009	2.63944
355.222	1.68095
355.435	1.851
355.647	2.63852
355.86	0.94428
356.073	1.74904
356.286	1.36326
356.499	2.33375
356.712	2.03058
356.925	2.07852
357.138	2.46351
357.35	0.89572
357.563	1.41136
357.776	1.86981
357.989	1.35298
358.201	2.18942
358.414	1.61783
358.627	2.56075
358.84	1.4701
359.052	0.86365
359.265	0.82059
359.478	2.45683
359.69	-0.35688
359.903	1.98315
360.116	2.10926
360.328	0.24654
360.541	2.26154
360.753	0.82161
360.966	1.05643
361.179	1.1457
361.391	1.15449
361.604	0.68331
361.816	1.13853
362.029	0.96486
362.241	0.90185
362.454	0.95912
362.666	0.79036
362.879	1.28039
363.091	1.24349
363.304	0.8878
363.516	1.46367
363.728	0.62329
363.941	1.9148
364.153	0.91296
364.366	0.03668
364.578	0.73787
364.79	1.74593
365.003	1.4139
365.215	1.30724
365.427	1.91045
365.639	2.43484
365.852	1.74916
366.064	3.18215
366.276	1.01632
366.488	1.85054
366.701	1.08468
366.913	1.27542
367.125	1.46031
367.337	0.93461
367.549	1.04174
367.762	1.36975
367.974	1.60071
368.186	0.92123
368.398	2.41949
368.61	1.97741
368.822	1.89722
369.034	1.57413
369.246	2.1057
369.458	3.3321
369.67	0.90708
369.882	2.89993
370.094	0.0818
370.306	2.74973
370.518	1.39234
370.73	0.68157
370.942	0.93625
371.154	1.23596
371.366	0.91403
371.578	1.74944
371.79	0.63786
372.002	2.41276
372.214	2.75053
372.425	1.58356
372.637	2.32162
372.849	1.33198
373.061	-0.00115
373.273	1.86472
373.484	1.91931
373.696	2.05865
373.908	-0.00865
374.12	2.24087
374.331	1.90332
374.543	0.7219
374.755	0.73183
374.967	1.54832
375.178	2.06846
375.39	1.41451
375.602	1.54475
375.813	0.73518
376.025	0.5183
376.236	1.39291
376.448	1.50589
376.66	1.04623
376.871	1.07469
377.083	2.08549
377.294	2.22365
377.506	1.08105
377.717	2.26416
377.929	1.50489
378.14	0.7324
378.352	1.74041
378.563	1.70148
378.775	2.30145
378.986	1.02368
379.197	1.43344
379.409	1.2021
379.62	1.99816
379.832	1.7273
380.043	1.16217
380.254	1.48332
380.466	0.57603
380.677	3.4938
380.888	3.05412
381.1	3.23064
381.311	3.06469
381.522	1.41712
381.733	3.51601
381.945	1.24465
382.156	1.58353
382.367	1.22173
382.578	3.64799
382.789	3.27816
383.001	1.17398
383.212	2.39494
383.423	2.43462
383.634	2.19328
383.845	1.58806
384.056	1.14467
384.267	1.34676
384.478	1.21778
384.69	0.61461
384.901	1.75891
385.112	1.66684
385.323	2.42711
385.534	1.73747
385.745	1.66602
385.956	1.76736
386.167	0.74024
386.378	1.76746
386.588	0.5609
386.799	0.96343
387.01	0.2618
387.221	1.99059
387.432	1.33736
387.643	2.77176
387.854	1.33223
388.065	1.15383
388.275	1.17858
388.486	1.32171
388.697	1.31532
388.908	1.28281
389.119	2.14813
389.329	2.60941
389.54	1.43059
389.751	1.74952
389.962	2.363
390.172	1.51576
390.383	1.18197
390.594	1.0249
390.804	0.85658
391.015	0.99564
391.226	1.45425
391.436	1.86781
391.647	1.6779
391.858	1.69398
392.068	0.31342
392.279	0.46157
392.489	1.35219
392.7	2.09623
392.91	0.71388
393.121	0.93001
393.331	1.87587
393.542	2.24583
393.752	1.73524
393.963	1.44573
394.173	1.43501
394.384	1.79079
394.594	1.3272
394.804	0.65247
395.015	1.35303
395.225	1.7701
395.436	0.77579
395.646	1.86924
395.856	0.89352
396.067	0.58435
396.277	2.20137
396.487	1.56428
396.697	1.37347
396.908	2.12357
397.118	1.95613
397.328	1.70313
397.538	2.12059
397.749	1.01213
397.959	2.20365
398.169	2.1458
398.379	0.6769
398.589	1.87751
398.8	1.68827
399.01	1.33034
399.22	1.39797
399.43	2.96265
399.64	1.0929
399.85	1.9569
400.06	1.43601
400.27	1.17137
400.48	1.53889
400.69	2.60022
400.9	1.14503
401.11	1.11755
401.32	2.13378
401.53	1.18224
401.74	2.65978
401.95	2.18518
402.16	0.76705
402.37	1.70685
402.58	1.04366
402.79	2.06374
403	1.99662
403.209	1.38545
403.419	2.29614
403.629	1.17222
403.839	2.05576
404.049	2.07038
404.258	1.00418
404.468	0.95072
404.678	1.98075
404.888	2.02081
405.097	0.95864
405.307	1.57865
405.517	1.92214
405.727	1.78558
405.936	1.28635
406.146	1.79086
406.356	2.43394
406.565	1.59774
406.775	1.04847
406.984	1.14239
407.194	2.83096
407.404	1.7542
407.613	1.86739
407.823	2.30603
408.032	2.44914
408.242	2.29616
408.451	1.35929
408.661	1.45766
408.87	2.89488
409.08	1.30171
409.289	1.97592
409.499	1.71933
409.708	1.78715
409.918	0.47321
410.127	1.68266
410.336	2.69374
410.546	2.16214
410.755	1.34326
410.964	1.38123
411.174	1.03146
411.383	2.09033
411.592	1.94129
411.802	0.97244
412.011	2.39792
412.22	1.72188
412.429	2.78894
412.639	2.59855
412.848	2.66947
413.057	2.84476
413.266	2.34321
413.475	1.72734
413.685	2.26428
413.894	2.27561
414.103	2.61675
414.312	2.19531
414.521	1.83212
414.73	1.94188
414.939	3.18832
415.148	2.17189
415.357	2.00159
415.566	1.57316
415.776	1.72857
415.985	1.42893
416.194	2.17239
416.403	2.8301
416.611	0.94823
416.82	1.35878
417.029	1.81507
417.238	1.22089
417.447	1.18906
417.656	1.40994
417.865	1.21214
418.074	1.38815
418.283	1.69636
418.492	2.35595
418.7	2.24414
418.909	3.0354
419.118	2.01587
419.327	2.41934
419.536	2.075
419.744	1.74276
419.953	2.81879
420.162	2.87673
420.371	1.67818
420.579	1.83554
420.788	2.77812
420.997	2.81702
421.205	2.74404
421.414	2.51512
421.623	2.43597
421.831	2.08675
422.04	2.82713
422.249	2.08801
422.457	2.70616
422.666	2.02186
422.874	3.04337
423.083	3.00537
423.291	2.85176
423.5	2.53274
423.708	2.83172
423.917	3.26201
424.125	2.5755
424.334	2.33298
424.542	4.09446
424.751	3.49224
424.959	3.18686
425.167	3.52981
425.376	3.31806
425.584	2.57883
425.793	2.78859
426.001	1.9215
426.209	2.85182
426.418	1.93823
426.626	1.93554
426.834	1.60209
427.042	1.94702
427.251	1.61478
427.459	2.45572
427.667	2.03562
427.875	1.33584
428.084	1.77608
428.292	2.79446
428.5	2.14581
428.708	1.47094
428.916	1.48926
429.124	2.11072
429.333	1.99044
429.541	1.6691
429.749	2.04766
429.957	1.8895
430.165	3.45312
430.373	1.4206
430.581	2.04295
430.789	2.72083
430.997	1.8859
431.205	1.60975
431.413	2.01871
431.621	1.76566
431.829	2.43775
432.037	1.8092
432.245	2.44712
432.453	2.21493
432.661	1.835
432.869	3.16647
433.076	1.63287
433.284	2.21137
433.492	2.49285
433.7	2.90351
433.908	1.85243
434.116	2.28488
434.323	2.26762
434.531	2.13193
434.739	2.3555
434.947	2.57475
435.154	2.44868
435.362	2.16973
435.57	2.00248
435.778	1.71965
435.985	2.32151
436.193	1.71798
436.401	2.77583
436.608	2.11628
436.816	1.87991
437.023	2.9798
437.231	3.04097
437.439	2.21834
437.646	2.41598
437.854	2.35352
438.061	2.61984
438.269	2.10189
438.476	2.59748
438.684	2.26562
438.891	2.06065
439.099	1.79577
439.306	1.61933
439.514	1.74498
439.721	2.69413
439.929	2.04304
440.136	2.93259
440.343	2.85981
440.551	2.57035
440.758	4.16489
440.965	3.0595
441.173	2.82922
441.38	2.26078
441.587	2.65269
441.795	2.34541
442.002	2.47903
442.209	2.65425
442.416	2.89356
442.624	2.56147
442.831	2.42204
443.038	1.98669
443.245	1.68314
443.452	1.94115
443.66	2.65335
443.867	1.919
444.074	2.01783
444.281	1.90864
444.488	2.10534
444.695	2.38664
444.902	2.19271
445.109	3.06428
445.316	2.51997
445.523	2.45975
445.73	2.37405
445.937	3.04914
446.144	3.33137
446.351	3.45886
446.558	2.485
446.765	3.80054
446.972	3.67561
447.179	3.03479
447.386	4.03045
447.593	2.76219
447.8	3.69975
448.007	2.53937
448.214	2.51569
448.42	2.23554
448.627	3.01006
448.834	2.24717
449.041	2.26493
449.248	2.15776
449.454	2.75763
449.661	3.32156
449.868	2.35731
450.075	1.97546
450.281	1.39023
450.488	1.69213
450.695	1.98169
450.901	1.71248
451.108	2.18765
451.315	2.88783
451.521	2.31358
451.728	2.82938
451.935	1.93385
452.141	2.17683
452.348	2.48346
452.554	2.22129
452.761	1.99161
452.967	3.21146
453.174	2.38221
453.38	2.50579
453.587	1.60915
453.793	2.33672
454	3.0908
454.206	3.5715
454.413	3.03752
454.619	2.65912
454.825	1.85964
455.032	2.76023
455.238	2.95622
455.445	1.7169
455.651	2.53452
455.857	1.37256
456.064	2.22791
456.27	2.27941
456.476	2.2712
456.682	1.6833
456.889	2.56997
457.095	2.76451
457.301	3.86617
457.507	2.50329
457.714	2.33107
457.92	2.32918
458.126	1.89502
458.332	2.25558
458.538	2.11659
458.744	2.33744
458.951	2.48158
459.157	4.02434
459.363	2.98165
459.569	2.98846
459.775	3.64041
459.981	2.77783
460.187	3.11758
460.393	3.567
460.599	4.07982
460.805	3.1085
461.011	2.84478
461.217	3.43281
461.423	3.21284
461.629	2.44274
461.835	2.87077
462.041	2.45754
462.247	3.47974
462.453	2.56645
462.658	2.35888
462.864	2.86053
463.07	2.75296
463.276	2.7191
463.482	2.7453
463.688	3.37078
463.893	2.39673
464.099	2.44404
464.305	3.41002
464.511	2.32997
464.716	2.50506
464.922	2.95336
465.128	2.04514
465.333	3.68897
465.539	2.97131
465.745	2.49858
465.95	2.8002
466.156	4.28642
466.362	3.36127
466.567	2.60187
466.773	2.48985
466.978	3.66101
467.184	2.03289
467.389	1.51948
467.595	3.00092
467.8	2.10198
468.006	3.4088
468.211	3.45495
468.417	2.15228
468.622	2.99751
468.828	3.25801
469.033	2.89535
469.239	4.66094
469.444	2.52241
469.649	3.30729
469.855	2.55633
470.06	2.75404
470.266	2.03488
470.471	3.13105
470.676	3.11773
470.881	1.71747
471.087	3.00341
471.292	3.98057
471.497	1.87019
471.703	2.57675
471.908	2.44091
472.113	2.83702
472.318	3.36476
472.523	2.2018
472.729	3.06372
472.934	3.11883
473.139	2.46256
473.344	3.11401
473.549	3.31216
473.754	2.42769
473.959	4.39995
474.164	2.39235
474.369	2.68919
474.575	3.32404
474.78	2.94086
474.985	2.387
475.19	1.92499
475.395	2.25638
475.6	2.7044
475.804	3.58201
476.009	2.65777
476.214	2.6949
476.419	2.4581
476.624	1.7421
476.829	2.29766
477.034	2.99886
477.239	2.31529
477.444	3.13688
477.648	3.05337
477.853	3.19153
478.058	2.44163
478.263	2.229
478.468	2.14049
478.672	2.16209
478.877	3.42893
479.082	3.68256
479.287	2.95069
479.491	2.62705
479.696	1.98347
479.901	3.18215
480.105	3.06329
480.31	2.29581
480.515	2.61249
480.719	3.96173
480.924	2.33294
481.128	2.00806
481.333	2.93144
481.538	2.93457
481.742	2.9055
481.947	3.55774
482.151	3.88348
482.356	3.66314
482.56	4.89682
482.765	5.20428
482.969	6.52509
483.174	7.30897
483.378	8.89986
483.582	8.69098
483.787	9.69713
483.991	9.28956
484.196	9.60414
484.4	9.23799
484.604	9.84204
484.809	7.9239
485.013	8.0186
485.217	6.93545
485.422	6.11681
485.626	5.34848
485.83	5.33825
486.034	5.1051
486.239	5.27584
486.443	5.48508
486.647	5.43491
486.851	6.28112
487.055	6.98621
487.26	6.25672
487.464	6.88874
487.668	6.20471
487.872	6.33161
488.076	6.72706
488.28	6.25593
488.484	5.63477
488.688	5.8013
488.892	5.45758
489.096	5.35497
489.3	4.5528
489.504	4.36073
489.708	4.36045
489.912	4.4071
490.116	4.35116
490.32	3.70975
490.524	4.49109
490.728	4.7687
490.932	4.79531
491.136	4.87774
491.34	5.89629
491.544	6.00592
491.748	5.56409
491.951	5.52717
492.155	5.22299
492.359	5.38796
492.563	4.2176
492.767	4.12006
492.97	3.77178
493.174	3.13819
493.378	3.21728
493.582	2.48342
493.785	2.66385
493.989	2.85337
494.193	2.7566
494.396	2.51762
494.6	2.9854
494.804	2.59139
495.007	2.41336
495.211	2.53566
495.414	2.77474
495.618	2.84819
495.822	3.42141
496.025	2.79127
496.229	3.21945
496.432	2.49785
496.636	2.81486
496.839	2.73121
497.043	3.90761
497.246	3.08966
497.45	2.74018
497.653	2.84472
497.856	2.9188
498.06	2.2526
498.263	2.62187
498.467	2.36221
498.67	3.25887
498.873	2.94867
499.077	2.55587
499.28	2.5446
499.483	2.94366
499.686	3.10821
499.89	3.05845
500.093	3.30968
500.296	2.33426
500.499	3.70402
500.703	2.77106
500.906	2.83966
501.109	3.93186
501.312	2.8485
501.515	2.64702
501.719	3.08128
501.922	3.71316
502.125	3.0366
502.328	2.62565
502.531	2.20905
502.734	2.87243
502.937	1.78479
503.14	2.83555
503.343	2.18397
503.546	2.43711
503.749	2.49334
503.952	3.01973
504.155	2.24634
504.358	3.14343
504.561	2.97536
504.764	1.99721
504.967	2.65087
505.17	2.70478
505.373	3.73023
505.576	2.84902
505.778	3.1597
505.981	2.55541
506.184	3.41629
506.387	2.05422
506.59	4.03363
506.793	3.44185
506.995	3.05862
507.198	1.71569
507.401	2.98196
507.604	3.18577
507.806	2.23072
508.009	2.3697
508.212	3.15778
508.414	2.43905
508.617	2.39595
508.82	2.64345
509.022	3.45189
509.225	3.03684
509.427	1.93377
509.63	3.47266
509.833	2.6971
510.035	2.61594
510.238	1.86067
510.44	3.48591
510.643	1.511
510.845	4.1352
511.048	2.95496
511.25	2.55949
511.453	2.75619
511.655	2.96022
511.858	2.61437
512.06	3.16702
512.262	2.75222
512.465	3.27175
512.667	2.54398
512.869	2.20003
513.072	2.97945
513.274	3.2277
513.476	3.15385
513.679	3.24863
513.881	2.05681
514.083	3.71753
514.286	2.43497
514.488	2.43208
514.69	2.24503
514.892	1.97972
515.094	3.01584
515.297	2.55511
515.499	2.93056
515.701	2.2597
515.903	3.72686
516.105	3.60434
516.307	3.25789
516.509	1.62558
516.711	2.14472
516.913	2.81094
517.116	2.59545
517.318	2.41714
517.52	3.20369
517.722	2.95897
517.924	2.12548
518.126	3.10254
518.328	2.5074
518.529	3.27747
518.731	4.13126
518.933	2.48889
519.135	2.88157
519.337	3.55178
519.539	3.01582
519.741	1.75742
519.943	2.58748
520.145	2.60991
520.346	3.07149
520.548	2.48235
520.75	3.03118
520.952	2.36659
521.153	2.82913
521.355	3.14722
521.557	2.30721
521.759	2.98492
521.96	2.6459
522.162	2.23046
522.364	3.37113
522.565	2.37852
522.767	3.28933
522.969	3.37611
523.17	2.89111
523.372	3.04555
523.573	2.37171
523.775	2.5842
523.977	2.14236
524.178	3.96374
524.38	2.47683
524.581	3.17418
524.783	2.48577
524.984	3.29364
525.186	2.89738
525.387	3.47282
525.589	3.08181
525.79	2.91135
525.991	2.73921
526.193	3.3793
526.394	2.50001
526.596	3.52723
526.797	3.46411
526.998	3.28499
527.2	2.97164
527.401	4.42296
527.602	4.58379
527.803	5.94348
528.005	5.9939
528.206	6.48238
528.407	6.88755
528.608	6.49927
528.81	6.64129
529.011	5.9182
529.212	6.92133
529.413	5.94086
529.614	5.56387
529.815	5.52109
530.017	4.96764
530.218	4.21748
530.419	3.72282
530.62	3.58045
530.821	3.56416
531.022	2.74374
531.223	3.72765
531.424	3.614
531.625	3.57311
531.826	3.43001
532.027	3.56133
532.228	4.51954
532.429	4.10856
532.63	3.99041
532.831	4.47943
533.032	4.39178
533.233	4.87364
533.433	4.5322
533.634	4.83641
533.835	4.18784
534.036	3.6593
534.237	3.85151
534.438	3.40745
534.638	2.89961
534.839	2.90772
535.04	3.30225
535.241	2.80868
535.441	3.84874
535.642	3.35828
535.843	2.45489
536.043	2.72252
536.244	2.96175
536.445	3.149
536.645	3.80073
536.846	3.26444
537.047	4.10636
537.247	2.64263
537.448	2.85923
537.648	3.00059
537.849	2.70643
538.049	2.79048
538.25	3.17774
538.451	3.17944
538.651	2.41821
538.851	3.21758
539.052	3.52168
539.252	3.19533
539.453	2.90307
539.653	2.92479
539.854	3.06963
540.054	3.11677
540.254	4.21728
540.455	4.44304
540.655	3.90216
540.855	4.79468
541.056	5.2544
541.256	4.95752
541.456	5.78124
541.657	4.68267
541.857	5.67368
542.057	4.29509
542.257	4.14488
542.458	4.85836
542.658	4.92748
542.858	3.34114
543.058	4.32982
543.258	3.90376
543.458	2.7092
543.659	2.5163
543.859	3.36986
544.059	3.37868
544.259	2.93682
544.459	3.38188
544.659	2.54456
544.859	3.29025
545.059	2.55908
545.259	3.3513
545.459	3.03724
545.659	3.53117
545.859	3.06041
546.059	3.11772
546.259	2.4095
546.459	2.21071
546.659	2.17401
546.859	3.39924
547.059	3.25706
547.258	3.25716
547.458	3.19101
547.658	2.29018
547.858	2.37886
548.058	3.2655
548.258	3.06271
548.457	2.16433
548.657	4.749
548.857	2.79756
549.057	3.56611
549.256	3.41112
549.456	3.0182
549.656	1.93694
549.855	4.63141
550.055	3.07487
550.255	4.36082
550.454	3.62472
550.654	4.07395
550.853	4.36229
551.053	3.94271
551.253	3.61571
551.452	3.71341
551.652	2.4928
551.851	2.04107
552.051	3.0458
552.25	3.01057
552.45	2.94693
552.649	2.95761
552.849	2.54174
553.048	3.46988
553.248	3.42141
553.447	2.59142
553.646	3.7369
553.846	4.87856
554.045	4.11609
554.244	2.50943
554.444	4.46144
554.643	2.90534
554.842	4.49183
555.042	4.95236
555.241	3.05065
555.44	2.92846
555.64	3.7887
555.839	4.63458
556.038	3.85724
556.237	3.2011
556.436	3.29697
556.636	3.78254
556.835	2.91064
557.034	4.6351
557.233	3.61562
557.432	2.60711
557.631	4.28104
557.83	3.48598
558.029	3.11936
558.228	3.22443
558.427	2.69936
558.626	3.93608
558.825	2.96985
559.024	3.86402
559.223	5.1906
559.422	3.6403
559.621	4.18748
559.82	1.91247
560.019	3.87492
560.218	3.34157
560.417	1.22576
560.616	3.27223
560.815	6.14282
561.014	2.32983
561.212	4.47755
561.411	3.48705
561.61	2.43884
561.809	3.26673
562.008	4.63335
562.206	3.52269
562.405	3.96786
562.604	3.17492
562.803	3.59693
563.001	3.52217
563.2	2.60964
563.399	4.15395
563.597	2.67985
563.796	3.60342
563.995	2.32089
564.193	4.28815
564.392	3.27592
564.59	5.26999
564.789	1.80886
564.988	3.16587
565.186	3.64767
565.385	3.16313
565.583	3.07933
565.782	3.32819
565.98	3.23191
566.179	3.33382
566.377	2.37224
566.575	2.6916
566.774	4.31471
566.972	4.19481
567.171	4.95878
567.369	4.65997
567.567	3.59868
567.766	3.83366
567.964	1.82074
568.162	3.97799
568.361	4.54634
568.559	3.453
568.757	3.85913
568.956	3.84513
569.154	3.95064
569.352	4.44584
569.55	3.55568
569.748	3.47863
569.947	3.10198
570.145	3.02397
570.343	2.83207
570.541	4.82945
570.739	2.50848
570.937	3.46408
571.135	3.82533
571.333	5.20706
571.532	4.96362
571.73	3.56288
571.928	4.51371
572.126	3.98005
572.324	3.24307
572.522	4.63417
572.72	5.56672
572.918	3.68185
573.116	3.82364
573.313	3.71753
573.511	3.3686
573.709	3.37969
573.907	4.11291
574.105	3.46695
574.303	2.19394
574.501	2.32908
574.699	3.75512
574.896	3.77657
575.094	4.12406
575.292	2.62174
575.49	4.29065
575.688	3.52117
575.885	4.74664
576.083	5.37919
576.281	4.04339
576.478	3.31372
576.676	4.26098
576.874	2.76493
577.071	3.31737
577.269	5.71653
577.467	3.85281
577.664	3.93722
577.862	4.34402
578.059	3.35142
578.257	4.62018
578.455	3.68397
578.652	4.06994
578.85	2.31548
579.047	3.88197
579.245	3.92294
579.442	4.14116
579.64	3.93721
579.837	2.28373
580.034	6.31388
580.232	3.82813
580.429	2.90051
580.627	4.57876
580.824	5.40884
581.021	4.36025
581.219	3.83774
581.416	2.96066
581.613	5.33778
581.811	5.59775
582.008	3.39101
582.205	4.70654
582.402	4.50146
582.6	6.28211
582.797	4.27834
582.994	4.4542
583.191	4.5597
583.388	4.4186
583.586	4.92501
583.783	5.50208
583.98	3.31175
584.177	4.19381
584.374	1.02771
584.571	3.95115
584.768	4.06257
584.965	3.80271
585.162	4.71527
585.359	5.88675
585.556	4.43859
585.753	4.63954
585.95	3.16192
586.147	3.7348
586.344	4.59592
586.541	4.2765
586.738	2.95308
586.935	4.32201
587.132	3.59746
587.329	5.59308
587.526	4.20133
587.722	9.3525
587.919	2.82871
588.116	4.50889
588.313	5.71466
588.51	6.45375
588.706	3.8552
588.903	4.73884
589.1	5.16444
589.297	7.10836
589.493	4.38042
589.69	5.06354
589.887	3.76536
590.083	3.27892
590.28	3.60348
590.477	5.17309
590.673	4.91708
590.87	5.49464
591.067	4.0603
591.263	5.10893
591.46	4.9493
591.656	4.29813
591.853	6.33844
592.049	3.80859
592.246	3.65817
592.442	5.72539
592.639	5.08687
592.835	3.08337
593.032	4.79771
593.228	2.64492
593.425	2.8058
593.621	2.83998
593.817	4.22788
594.014	3.74169
594.21	4.38056
594.406	5.52573
594.603	4.4413
594.799	3.98406
594.995	1.88467
595.192	5.09404
595.388	3.40351
595.584	3.65075
595.78	3.04923
595.977	6.84865
596.173	5.86015
596.369	3.76598
596.565	3.42807
596.761	2.73034
596.957	5.33251
597.154	3.29304
597.35	3.58649
597.546	3.44391
597.742	4.7781
597.938	4.25697
598.134	3.33443
598.33	4.47577
598.526	5.85452
598.722	5.11947
598.918	6.24466
599.114	5.05525
599.31	3.71275
599.506	4.81882
599.702	3.70505
599.898	5.08062
600.094	5.67143
600.29	5.47115
600.485	5.37978
600.681	4.45293
600.877	6.44958
601.073	4.73259
601.269	7.21459
601.465	6.09412
601.66	3.48251
601.856	2.52812
602.052	6.88775
602.248	3.99413
602.443	2.34519
602.639	3.10774
602.835	3.56572
603.03	3.44685
603.226	5.26254
603.422	3.26891
603.617	4.049
603.813	3.82399
604.009	3.48871
604.204	5.38158
604.4	2.72442
604.595	5.02731
604.791	3.26879
604.986	4.26608
605.182	3.23115
605.377	3.67105
605.573	3.48511
605.768	4.22718
605.964	4.80074
606.159	5.1006
606.355	5.87132
606.55	3.83043
606.746	5.61225
606.941	4.33211
607.136	7.1591
607.332	8.04096
607.527	3.08745
607.722	5.01108
607.918	4.50728
608.113	3.57847
608.308	5.35612
608.503	4.96452
608.699	4.99534
608.894	4.95164
609.089	3.4096
609.284	4.59659
609.479	3.62318
609.675	4.76431
609.87	4.23927
610.065	4.97725
610.26	5.47447
610.455	5.30054
610.65	4.09166
610.845	4.66347
611.04	5.2957
611.235	4.38323
611.43	4.11584
611.625	3.18105
611.82	6.25464
612.015	3.64311
612.21	6.67154
612.405	2.92688
612.6	7.19524
612.795	6.35048
612.99	6.23565
613.185	3.68583
613.38	3.76655
613.575	5.23008
613.77	8.63736
613.965	2.79216
614.159	3.78564
614.354	6.8923
614.549	6.68101
614.744	5.72729
614.938	3.83804
615.133	3.21565
615.328	6.84721
615.523	6.64731
615.717	8.99254
615.912	4.49947
616.107	5.35914
616.301	4.78315
616.496	3.93578
616.691	7.31281
616.885	6.33406
617.08	8.6291
617.274	6.79887
617.469	8.50901
617.664	6.1887
617.858	4.72415
618.053	5.4518
618.247	4.70128
618.442	2.15315
618.636	7.13731
618.831	4.76964
619.025	4.95048
619.219	8.99178
619.414	0.98698
619.608	5.14498
619.803	4.06334
619.997	8.33518
620.191	6.95859
620.386	5.96129
620.58	5.56859
620.774	3.31099
620.969	3.13561
621.163	5.64076
621.357	3.41463
621.551	5.18312
621.746	5.85273
621.94	5.24812
622.134	10.52648
622.328	8.55562
622.522	3.53542
622.716	7.14588
622.911	6.70207
623.105	6.4534
623.299	5.47774
623.493	10.34366
623.687	3.72818
623.881	5.20926
624.075	5.94326
624.269	6.8303
624.463	2.61419
624.657	2.97269
624.851	6.43446
625.045	6.18736
625.239	6.72718
625.433	4.09231
625.627	7.68526
625.821	4.34252
626.015	3.98392
626.209	5.14049
626.403	2.58387
626.596	5.71628
626.79	6.15653
626.984	3.09337
627.178	5.94254
627.372	5.93821
627.565	6.44865
627.759	3.15623
627.953	3.37739
628.147	6.14243
628.34	6.23335
628.534	7.78499
628.728	5.14716
628.921	6.96327
629.115	7.19834
629.309	6.5766
629.502	7.21829
629.696	5.48891
629.89	5.14732
630.083	5.80629
630.277	6.50466
630.47	8.49531
630.664	5.16384
630.857	3.94341
631.051	6.74395
631.244	7.83917
631.438	7.35922
631.631	4.53679
631.825	7.70976
632.018	6.66294
632.212	8.10808
632.405	7.97441
632.598	5.3234
632.792	5.98839
632.985	2.46236
633.178	4.79992
633.372	5.45267
633.565	5.78984
633.758	8.26259
633.952	4.16124
634.145	4.5062
634.338	5.81256
634.531	4.94822
634.724	4.42278
634.918	5.8348
635.111	5.20528
635.304	4.3754
635.497	9.78833
635.69	5.95176
635.883	7.63717
636.077	3.51527
636.27	6.42985
636.463	6.29563
636.656	6.86352
636.849	4.99797
637.042	6.84361
637.235	9.51846
637.428	7.18298
637.621	7.48022
637.814	9.00758
638.007	8.74433
638.2	9.61354
638.393	9.51491
638.586	4.0179
638.778	5.29666
638.971	6.46125
639.164	9.72825
639.357	7.1691
639.55	9.20235
639.743	7.66792
639.935	7.76157
640.128	11.02422
640.321	8.06747
640.514	6.70874
640.707	11.77463
640.899	7.66959
641.092	4.07971
641.285	23.12913
641.477	2.69807
641.67	11.71757
641.863	9.13081
642.055	7.90683
642.248	7.41035
642.441	6.26605
642.633	8.43231
642.826	9.22637
643.018	9.65394
643.211	10.6412
643.403	10.90705
643.596	11.61313
643.788	11.37838
643.981	6.77908
644.173	8.83724
644.366	6.06004
644.558	3.73081
644.751	9.47485
644.943	4.49511
645.135	11.39308
645.328	10.96022
645.52	8.87369
645.712	9.17764
645.905	14.41196
646.097	5.93278
646.289	8.98145
646.482	11.66318
646.674	6.06123
646.866	9.43238
647.058	7.4948
647.251	5.34614
647.443	6.09092
647.635	6.96662
647.827	6.09378
648.019	5.68136
648.211	7.45153
648.404	7.74617
648.596	11.56472
648.788	8.05723
648.98	8.26375
649.172	8.90775
649.364	8.5893
649.556	4.33856
649.748	12.15257
649.94	7.06315
650.132	8.8765
650.324	5.90123
650.516	6.60465
650.708	10.32607
650.9	4.59845
651.092	7.329
651.284	4.13192
651.476	5.1944
651.667	8.47528
651.859	10.49581
652.051	7.07239
652.243	7.6021
652.435	6.45635
652.627	8.62146
652.818	7.67204
653.01	4.11484
653.202	5.7864
653.394	7.19649
653.585	8.78371
653.777	18.02129
653.969	11.56036
654.16	10.90825
654.352	5.51915
654.544	7.11684
654.735	11.22249
654.927	7.99577
655.118	11.26855
655.31	9.94323
655.502	10.05884
655.693	6.75976
655.885	9.68774
656.076	11.41126
656.268	8.31462
656.459	11.22074
656.651	10.98327
656.842	6.84768
657.034	6.28292
657.225	9.29251
657.416	11.26997
657.608	11.34499
657.799	7.9437
657.99	10.14308
658.182	5.59806
658.373	6.18623
658.564	9.67217
658.756	7.54525
658.947	7.05276
659.138	5.02682
659.33	6.20672
659.521	5.62269
659.712	7.18918
659.903	6.64039
660.094	5.95651
660.286	4.4712
660.477	11.66573
660.668	8.61113
660.859	7.98949
661.05	4.56784
661.241	9.74376
661.432	9.42235
661.623	7.56334
661.814	6.9513
662.006	4.19695
662.197	8.67522
662.388	10.97108
662.579	9.12879
662.77	11.95134
662.96	15.94761
663.151	11.46976
663.342	4.84637
663.533	9.19331
663.724	8.32361
663.915	13.04584
664.106	8.77031
664.297	13.10519
664.488	9.89315
664.678	7.98045
664.869	9.95206
665.06	11.84558
665.251	9.92751
665.442	9.95407
665.632	7.36515
665.823	14.65288
666.014	1.5284
666.204	11.23384
666.395	12.23218
666.586	17.9582
666.776	11.22587
666.967	13.58688
667.158	9.39697
667.348	13.1655
667.539	6.41934
667.729	11.38637
667.92	6.62976
668.111	12.07975
668.301	11.40111
668.492	8.46206
668.682	8.81871
668.873	8.40635
669.063	5.71595
669.253	9.35063
669.444	12.328
669.634	7.77257
669.825	14.71793
670.015	11.3987
670.206	7.44751
670.396	15.29164
670.586	9.35214
670.777	10.70447
670.967	3.58902
671.157	8.95213
671.347	7.51796
671.538	14.57497
671.728	11.63343
671.918	15.18489
672.108	11.29814
672.299	9.26992
672.489	9.99082
672.679	8.02114
672.869	10.86355
673.059	14.80855
673.249	11.62324
673.44	7.0486
673.63	9.4877
673.82	12.52459
674.01	8.14935
674.2	11.71105
674.39	18.16334
674.58	11.14265
674.77	10.81641
674.96	10.24384
675.15	22.53163
675.34	13.73452
675.53	10.59202
675.72	8.77269
675.91	6.03004
676.099	15.42945
676.289	18.40106
676.479	13.07488
676.669	8.98762
676.859	11.88109
677.049	7.69648
677.238	11.05507
677.428	14.73626
677.618	11.72133
677.808	14.15675
677.997	11.57829
678.187	7.0007
678.377	9.68078
678.567	7.86067
678.756	8.62446
678.946	8.60168
679.136	6.42677
679.325	7.41096
679.515	7.43099
679.704	5.6603
679.894	11.45038
680.084	10.5466
680.273	12.80349
680.463	7.10725
680.652	6.92959
680.842	9.28723
681.031	11.6469
681.221	6.89831
681.41	10.57095
681.6	9.25025
681.789	11.81049
681.978	13.33281
682.168	11.06447
682.357	11.30878
682.547	11.96713
682.736	11.00749
682.925	14.27865
683.115	13.6977
683.304	13.22968
683.493	10.91633
683.682	12.23542
683.872	12.64001
684.061	15.35784
684.25	13.18796
684.439	18.74611
684.629	12.44213
684.818	23.16376
685.007	10.55862
685.196	9.72
685.385	17.43584
685.574	12.77689
685.763	12.48815
685.952	12.21406
686.142	7.87775
686.331	15.79676
686.52	4.97225
686.709	16.73238
686.898	17.48276
687.087	13.77605
687.276	18.15517
687.465	16.22347
687.654	10.05094
687.842	17.80929
688.031	6.95839
688.22	16.02747
688.409	12.41151
688.598	11.80215
688.787	21.16118
688.976	12.1287
689.165	19.40331
689.353	9.88986
689.542	13.89092
689.731	15.81844
689.92	19.32532
690.108	15.61579
690.297	11.86261
690.486	12.78826
690.675	16.19083
690.863	19.60671
691.052	18.2082
691.241	14.93274
691.429	14.00374
691.618	17.63604
691.806	7.95072
691.995	12.50079
692.184	13.16171
692.372	10.5109
692.561	12.87271
692.749	13.3129
692.938	23.59623
693.126	16.0554
693.315	13.28566
693.503	16.10963
693.692	16.32515
693.88	17.73273
694.068	23.08081
694.257	12.35998
694.445	15.03101
694.634	7.30512
694.822	17.78217
695.01	19.33443
695.199	21.4068
695.387	19.60882
695.575	18.68335
695.763	13.87286
695.952	12.65611
696.14	7.50927
696.328	10.69656
696.516	14.38915
696.705	14.54985
696.893	13.66505
697.081	6.37255
697.269	16.56055
697.457	9.39884
697.645	8.15962
697.833	15.55201
698.021	9.43567
698.21	11.08964
698.398	11.23074
698.586	7.92585
698.774	7.62338
698.962	10.96945
699.15	7.95582
699.338	6.86376
699.526	12.92301
699.714	9.58049
699.901	9.44439
700.089	15.0506
700.277	9.09934
700.465	11.0622
700.653	16.16828
700.841	13.89372
701.029	9.66512
701.217	18.05405
701.404	13.81174
701.592	17.63986
701.78	23.27662
701.968	12.52652
702.155	14.45321
702.343	8.00281
702.531	20.47668
702.718	17.10706
702.906	13.65509
703.094	11.30185
703.281	20.96968
703.469	12.6471
703.657	18.87466
703.844	29.13537
704.032	22.46401
704.219	13.08296
704.407	17.86324
704.595	20.06753
704.782	15.49349
704.97	14.05624
705.157	12.44404
705.345	22.77061
705.532	29.8888
705.719	17.92515
705.907	21.8644
706.094	16.24091
706.282	24.54359
706.469	14.22677
706.656	17.7296
706.844	15.35826
707.031	20.43155
707.218	17.4164
707.406	23.89939
707.593	19.21817
707.78	19.33219
707.968	15.4473
708.155	11.843
708.342	19.66274
708.529	20.73584
708.716	16.96819
708.904	24.29995
709.091	19.36118
709.278	9.95443
709.465	23.30796
709.652	24.24427
709.839	22.87692
710.026	18.88292
710.213	9.68373
710.4	17.08711
710.587	21.32138
710.774	23.19653
710.961	21.90008
711.148	16.90551
711.335	23.18615
711.522	15.48507
711.709	19.14197
711.896	27.68851
712.083	22.13732
712.27	12.6199
712.457	18.20963
712.644	10.79464
712.831	28.49904
713.017	18.14124
713.204	20.93474
713.391	14.38067
713.578	23.38467
713.765	25.68643
713.951	21.73343
714.138	36.18505
714.325	20.90432
714.512	18.12087
714.698	14.36376
714.885	25.86397
715.072	20.2618
715.258	19.75079
715.445	15.66222
715.631	24.15586
715.818	6.56361
716.005	15.21192
716.191	22.58765
716.378	16.65942
716.564	22.20342
716.751	15.04984
716.937	16.782
717.124	24.71393
717.31	15.15438
717.497	29.84354
717.683	15.47357
717.869	32.02099
718.056	19.21631
718.242	23.07607
718.429	19.13474
718.615	13.46206
718.801	20.83843
718.988	25.1944
719.174	24.12871
719.36	19.83819
719.547	27.38858
719.733	23.67857
719.919	23.3986
720.105	27.35658
720.291	21.21557
720.478	23.62812
720.664	19.66054
720.85	16.53075
721.036	37.32604
721.222	31.32208
721.408	19.34303
721.595	32.74543
721.781	32.02758
721.967	29.20817
722.153	31.38402
722.339	24.01562
722.525	24.29045
722.711	16.46668
722.897	13.21131
723.083	19.8296
723.269	27.77049
723.455	39.3283
723.641	43.96195
723.827	24.00299
724.012	25.96546
724.198	21.77542
724.384	31.92705
724.57	23.74452
724.756	14.66103
724.942	11.56235
725.127	30.3008
725.313	32.04605
725.499	31.09673
725.685	36.96747
725.87	25.49012
726.056	16.69487
726.242	29.89483
726.428	12.57492
726.613	29.12067
726.799	21.22338
726.985	15.27212
727.17	13.69161
727.356	36.60896
727.541	17.15781
727.727	22.15098
727.913	27.33446
728.098	20.02889
728.284	27.83473
728.469	15.18052
728.655	16.90642
728.84	29.81252
729.026	26.05555
729.211	30.61917
729.397	26.00558
729.582	27.4116
729.767	22.03413
729.953	24.84772
730.138	30.29663
730.323	9.07336
730.509	16.00592
730.694	33.05261
730.879	25.79158
731.065	24.56293
731.25	40.64042
731.435	27.59312
731.621	13.52841
731.806	20.51424
731.991	25.57175
732.176	14.36119
732.361	31.48794
732.547	26.31344
732.732	12.18183
732.917	40.12724
733.102	14.59444
733.287	19.54237
733.472	24.19034
733.657	23.91527
733.842	13.60966
734.027	21.13594
734.212	21.11843
734.397	17.84008
734.582	25.0228
734.767	28.66087
734.952	33.90988
735.137	8.64209
735.322	33.59751
735.507	22.98944
735.692	26.02535
735.877	41.26489
736.062	39.57396
736.247	26.25828
736.431	24.8283
736.616	33.73084
736.801	28.90193
736.986	26.33862
737.171	19.16678
737.355	15.26413
737.54	33.72106
737.725	25.20302
737.909	48.71676
738.094	21.29911
738.279	31.54188
738.463	24.1182
738.648	31.38479
738.833	28.91247
739.017	42.48574
739.202	27.06252
739.386	25.61395
739.571	20.29413
739.756	34.48122
739.94	25.53349
740.125	34.56484
740.309	24.47701
740.494	30.48647
740.678	27.50171
740.863	32.74142
741.047	29.04631
741.231	38.91683
741.416	20.97424
741.6	39.0503
741.785	21.68199
741.969	34.88345
742.153	38.95956
742.338	12.07819
742.522	27.03354
742.706	31.79214
742.89	16.40061
743.075	30.78892
743.259	39.15641
743.443	36.81757
743.627	37.248
743.812	48.17558
743.996	14.9914
744.18	27.35343
744.364	22.25635
744.548	49.86011
744.732	27.90422
744.916	34.00384
745.1	34.97315
745.285	27.29496
745.469	31.42432
745.653	46.78022
745.837	16.7686
746.021	48.88749
746.205	36.6831
746.389	29.88463
746.573	26.26854
746.757	41.73668
746.94	23.15443
747.124	38.88099
747.308	17.21326
747.492	34.94932
747.676	25.26848
747.86	51.0396
748.044	27.15291
748.227	14.43239
748.411	66.67753
748.595	33.991
748.779	20.47664
748.963	35.47585
749.146	31.53268
749.33	23.03064
749.514	22.3876
749.697	38.39727
749.881	22.77421
750.065	18.97725
750.248	29.72384
750.432	53.22502
750.616	30.95372
750.799	17.76806
750.983	51.795
751.166	54.09881
751.35	14.42284
751.533	35.79692
751.717	45.81952
751.9	44.58904
752.084	27.62129
752.267	17.54879
752.451	23.09001
752.634	30.22241
752.818	34.02407
753.001	39.6669
753.184	39.10674
753.368	33.42679
753.551	3.641
753.734	22.13698
753.918	54.04941
754.101	24.47832
754.284	35.08327
754.467	27.41175
754.651	24.68473
754.834	24.96866
755.017	45.2013
755.2	41.21887
755.384	16.98526
755.567	36.43738
755.75	41.23241
755.933	26.7856
756.116	34.15516
756.299	26.3259
756.482	23.71391
756.665	37.78704
756.848	35.69748
757.032	34.68353
757.215	17.4557
757.398	21.97351
757.581	22.59397
757.764	56.05522
757.947	32.6151
758.129	44.19789
758.312	4.29383
758.495	30.82403
758.678	28.21678
758.861	31.40203
759.044	51.03025
759.227	26.48218
759.41	21.27876
759.592	37.76335
759.775	32.9964
759.958	40.71858
760.141	16.00427
760.324	51.78513
760.506	47.64976
760.689	38.59692
760.872	57.39904
761.054	37.0553
761.237	25.85413
761.42	35.53362
761.602	38.92719
761.785	36.90274
761.968	42.18307
762.15	47.46319
762.333	28.8125
762.515	37.03726
762.698	23.6446
762.88	36.96626
763.063	32.40342
763.245	40.19753
763.428	20.95816
763.61	22.91546
763.793	18.69044
763.975	32.97375
764.158	25.2252
764.34	23.59768
764.522	18.88109
764.705	26.17597
764.887	42.70028
765.069	16.35761
765.252	36.02976
765.434	39.1322
765.616	29.91716
765.799	24.08772
765.981	37.46655
766.163	20.3357
766.345	39.10233
766.528	28.65392
766.71	6.88901
766.892	33.90239
767.074	44.04785
767.256	30.51218
767.438	50.4086
767.62	38.57052
767.802	58.30317
767.985	44.11699
768.167	53.49005
768.349	29.55902
768.531	41.58149
768.713	34.91405
768.895	49.12864
769.077	35.65985
769.259	66.03324
769.441	94.63496
769.623	49.3013
769.804	57.57128
769.986	54.04785
770.168	75.161
770.35	75.30185
770.532	64.42422
770.714	64.36294
770.896	71.31063
771.077	19.09399
771.259	72.41879
771.441	53.52903
771.623	74.82275
771.804	96.35113
771.986	22.86131
772.168	45.84276
772.35	73.06979
772.531	95.08953
772.713	57.49015
772.894	80.02951
773.076	52.49054
773.258	43.54288
773.439	79.65193
773.621	82.76568
773.802	36.73407
773.984	53.48741
774.166	61.64472
774.347	85.87604
774.529	71.27978
774.71	21.34389
774.891	50.4964
775.073	49.85414
775.254	86.42168
775.436	45.5445
775.617	90.04708
775.799	45.60232
775.98	87.46691
776.161	89.09915
776.343	86.87631
776.524	54.79754
776.705	51.42409
776.886	26.99807
777.068	56.57908
777.249	115.1364
777.43	98.3517
777.611	34.57973
777.793	56.72112
777.974	88.93559
778.155	50.48567
778.336	45.67864
778.517	97.42112
778.698	43.54506
778.879	18.71962
779.061	9.21022
779.242	67.79185
779.423	63.92688
779.604	45.59656
779.785	51.46619
779.966	63.64827
780.147	76.79208
780.328	74.64962
780.509	104.70354
780.69	74.56906
780.871	49.08104
781.051	22.86651
781.232	60.19845
781.413	66.52451
781.594	46.60683
781.775	46.66109
781.956	42.71364
782.137	18.31384
782.317	43.78529
782.498	65.40678
782.679	62.84451
782.86	61.64557
783.04	39.23261
783.221	67.65957
783.402	97.93475
783.583	63.56067
783.763	72.67203
783.944	45.96878
784.124	30.63623
784.305	94.40156
784.486	72.29291
784.666	54.96887
784.847	23.09937
785.027	119.81608
785.208	38.56659
785.388	43.37882
785.569	42.7497
785.749	50.74074
785.93	43.5229
786.11	28.95862
786.291	61.22929
786.471	61.64799
786.652	73.72774
786.832	53.09863
787.012	64.62205
787.193	31.66217
787.373	60.3963
787.553	50.59709
787.734	57.73521
787.914	48.32048
788.094	68.9888
788.275	62.9938
788.455	49.43851
788.635	32.93044
788.815	61.29667
788.995	35.56409
789.176	31.37057
789.356	41.41376
789.536	48.01794
789.716	63.53099
789.896	40.46585
790.076	46.48626
790.256	65.00107
790.436	17.38758
790.616	38.14803
790.796	60.86423
790.976	49.32429
791.156	45.34197
791.336	67.24727
791.516	63.98893
791.696	52.52907
791.876	26.68839
792.056	60.38635
792.236	80.89563
792.416	72.34163
792.596	65.48315
792.776	64.26343
792.956	71.97898
793.135	91.64921
793.315	33.83859
793.495	83.06836
793.675	69.72643
793.854	78.69893
794.034	74.47539
794.214	34.38583
794.394	76.4
794.573	80.73284
794.753	59.85654
794.933	45.50636
795.112	57.96034
795.292	71.71097
795.472	93.3691
795.651	35.12133
795.831	59.46326
796.01	46.32188
796.19	42.81976
796.369	48.90025
796.549	69.04931
796.728	50.91425
796.908	36.64244
797.087	36.15325
797.267	52.53919
797.446	35.14994
797.626	59.02329
797.805	61.73548
797.984	45.08399
798.164	68.20258
798.343	40.30066
798.522	62.54565
798.702	58.13026
798.881	33.75069
799.06	50.68975
799.239	20.74218
799.419	34.72813
799.598	92.10518
799.777	64.24184
799.956	77.00798
800.136	51.49453
800.315	43.36772
800.494	63.77377
800.673	78.01245
800.852	73.66808
801.031	80.81187
801.21	70.26613
801.389	42.53384
801.568	64.81504
801.747	96.52551
801.926	52.92594
802.105	89.6353
802.284	53.58721
802.463	86.97524
802.642	64.21553
802.821	57.11044
803	84.68839
803.179	79.21131
803.358	80.67403
803.537	43.74012
803.716	62.61631
803.895	44.4667
804.073	54.47723
804.252	49.01867
804.431	65.84473
804.61	56.08372
804.789	87.2978
804.967	49.71366
805.146	47.97343
805.325	104.20047
805.503	72.46114
805.682	33.61621
805.861	128.02243
806.039	90.19337
806.218	42.93032
806.397	64.79419
806.575	63.06929
806.754	68.34624
806.932	44.31246
807.111	89.16925
807.289	83.13098
807.468	64.7835
807.646	78.68365
807.825	61.75843
808.003	67.46255
808.182	82.37546
808.36	61.31595
808.539	48.40836
808.717	91.61499
808.895	39.1927
809.074	68.10763
809.252	50.2108
809.43	85.28619
809.609	91.04027
809.787	101.52434
809.965	54.22745
810.144	62.76615
810.322	51.2229
810.5	78.37422
810.678	60.46139
810.856	106.75863
811.035	88.30513
811.213	89.88894
811.391	83.49037
811.569	68.36161
811.747	143.3366
811.925	97.38422
812.103	45.32916
812.281	54.63819
812.459	117.6435
812.637	107.45035
812.816	93.80334
812.994	116.3079
813.171	93.88723
813.349	90.1844
813.527	101.00533
813.705	94.40569
813.883	110.42365
814.061	97.51683
814.239	112.61532
814.417	124.92731
814.595	83.46477
814.773	75.8448
814.95	74.84174
815.128	78.40827
815.306	66.26538
815.484	67.38351
815.662	48.44792
815.839	47.63351
816.017	55.28443
816.195	96.75937
816.372	58.78293
816.55	98.9117
816.728	106.65419
816.905	63.07341
817.083	103.93341
817.261	78.74437
817.438	146.37716
817.616	119.08069
817.793	53.7255
817.971	87.32094
818.148	80.12232
818.326	115.27518
818.503	78.56695
818.681	95.66187
818.858	62.41663
819.036	68.4973
819.213	71.36575
819.391	52.25468
819.568	49.20737
819.745	43.55245
819.923	79.7723
820.1	53.46047
820.277	47.51361
820.455	57.30037
820.632	56.80964
820.809	61.0633
820.986	34.86329
821.164	28.39975
821.341	24.53522
821.518	36.32111
821.695	25.88716
821.872	22.56953
822.05	19.67272
822.227	14.76299
822.404	16.01872
822.581	18.16794
822.758	15.69664
822.935	16.13031
823.112	18.63577
823.289	15.31879
823.466	19.01511
823.643	18.76089
823.82	23.20047
823.997	20.51039
824.174	24.76691
824.351	33.18516
824.528	32.22251
824.705	28.76917
824.882	31.67009
825.059	43.86901
825.236	30.69069
825.412	32.08885
825.589	40.38299
825.766	58.95197
825.943	34.81141
826.12	41.01706
826.296	26.70217
826.473	36.43867
826.65	34.88884
826.827	45.20629
827.003	28.08308
827.18	30.89828
827.357	34.44224
827.533	29.71259
827.71	15.53772
827.887	26.17402
828.063	31.68497
828.24	25.5102
828.416	38.71632
828.593	30.631
828.769	46.13754
828.946	49.56022
829.122	52.33488
829.299	54.93209
829.475	28.14267
829.652	49.42827
829.828	82.61686
830.005	58.30962
830.181	70.87431
830.357	47.65909
830.534	72.01495
830.71	64.38398
830.886	77.48372
831.063	70.59177
831.239	93.71618
831.415	37.36668
831.592	104.68524
831.768	58.47264
831.944	48.5592
832.12	107.37539
832.296	96.90936
832.473	78.60166
832.649	55.18136
832.825	72.08674
833.001	42.50571
833.177	61.64005
833.353	55.50237
833.529	31.06261
833.705	46.21774
833.881	32.1247
834.058	29.0647
834.234	32.76344
834.41	34.26467
834.586	24.66262
834.761	31.96714
834.937	37.77352
835.113	37.80436
835.289	31.77141
835.465	39.80257
835.641	38.05334
835.817	41.40844
835.993	74.92834
836.169	38.98379
836.344	58.72572
836.52	64.73756
836.696	78.21525
836.872	49.62858
837.048	152.65919
837.223	57.24432
837.399	133.07502
837.575	101.37625
837.75	91.57195
837.926	135.94034
838.102	209.08375
838.277	167.81451
838.453	210.05319
838.628	215.1625
838.804	76.51363
838.98	199.01173
839.155	101.50942
839.331	132.14487
839.506	94.25174
839.682	91.75209
839.857	109.12183
840.033	135.87116
840.208	63.54382
840.384	35.22816
840.559	60.35145
840.734	106.63021
840.91	140.89865
841.085	89.64184
841.26	93.25136
841.436	83.89689
841.611	70.94761
841.786	110.86388
841.962	160.20658
842.137	121.72986
842.312	51.4593
842.487	104.43914
842.663	73.66636
842.838	111.39658
843.013	310.66294
843.188	211.88658
843.363	134.78349
843.538	304.18503
843.714	336.01908
843.889	354.60828
844.064	300.22659
844.239	247.79441
844.414	451.3384
844.589	261.07643
844.764	393.08861
844.939	365.52195
845.114	395.62044
845.289	420.85069
845.464	493.30906
845.639	380.87878
845.814	181.79675
845.989	303.89492
846.163	246.37294
846.338	323.65839
846.513	398.99667
846.688	255.65778
846.863	298.25928
847.038	222.27363
847.212	319.26407
847.387	316.18519
847.562	286.41773
847.737	441.96708
847.911	181.12956
848.086	179.55446
848.261	448.44622
848.435	268.59017
848.61	368.36829
848.785	199.08866
848.959	385.53832
849.134	451.89564
849.308	655.25236
849.483	327.32017
849.658	564.79032
849.832	254.78969
850.007	222.08371
850.181	655.43282
850.356	295.75878
850.53	782.02733
850.705	321.72831
850.879	177.59776
851.053	314.03286
851.228	291.91975
851.402	499.26783
851.577	472.23918
851.751	565.17588
851.925	343.21881
852.099	146.8936
852.274	239.73612
852.448	300.30949
852.622	447.54518
852.797	300.55578
852.971	326.29941
853.145	428.23413
853.319	754.10229
853.493	614.01322
853.668	502.63469
853.842	772.04009
854.016	496.29677
854.19	646.73196
854.364	351.7366
854.538	351.07368
854.712	733.62799
854.886	382.9899
855.06	296.92696
855.234	114.49165
855.408	627.91607
855.582	395.22461
855.756	624.19867
855.93	539.28106
856.104	603.44868
856.278	560.86257
856.452	372.88251
856.626	424.58117
856.8	905.94372
856.973	386.96523
857.147	461.25104
857.321	482.23514
857.495	505.87987
857.669	305.14518
857.842	437.21669
858.016	566.48159
858.19	208.41644
858.364	745.27283
858.537	401.7945
858.711	519.30233
858.885	374.00616
859.058	234.26631
859.232	160.32673
859.405	162.02117
859.579	511.04936
859.753	516.40173
859.926	232.49988
860.1	230.51214
860.273	374.86119
860.447	467.31935
860.62	322.76557
860.794	609.34756
860.967	333.81488
861.141	475.28757
861.314	828.45667
861.487	466.73396
861.661	474.34754
861.834	528.74035
862.008	702.23571
862.181	440.64899
862.354	512.31741
862.528	531.2357
862.701	317.83008
862.874	202.00224
863.047	309.48618
863.221	282.71721
863.394	129.73599
863.567	404.56409
863.74	135.19749
863.913	489.23936
864.087	482.14085
864.26	452.25905
864.433	356.47817
864.606	610.45323
864.779	348.35599
864.952	187.6014
865.125	405.21969
865.298	306.3228
865.471	310.16562
865.644	775.18909
865.817	508.24882
865.99	478.4053
866.163	455.00707
866.336	238.12631
866.509	328.03249
866.682	566.19097
866.855	704.83777
867.028	187.58109
867.2	369.4245
867.373	126.32706
867.546	378.55014
867.719	685.4204
867.892	428.33724
868.064	297.46095
868.237	319.57849
868.41	381.5777
868.583	170.96607
868.755	216.26852
868.928	452.04015
869.101	817.76876
869.273	537.05907
869.446	511.73507
869.619	597.77118
869.791	376.69756
869.964	489.54306
870.136	830.49322
870.309	348.52889
870.481	416.4366
870.654	200.61648
870.826	319.50642
870.999	208.52851
871.171	419.91331
871.344	241.83724
871.516	291.55915
871.689	240.32946
871.861	340.12329
872.033	263.92108
872.206	269.85135
872.378	329.52348
872.55	343.13853
872.723	196.02562
872.895	332.6354
873.067	448.28639
873.24	380.66358
873.412	336.78267
873.584	402.98009
873.756	330.90393
873.928	446.39801
874.101	313.356
874.273	418.23424
874.445	115.67242
874.617	255.10904
874.789	310.82509
874.961	306.36608
875.133	341.02483
875.305	385.25673
875.477	279.53293
875.649	172.61757
875.821	185.21264
875.993	601.0134
876.165	347.45889
876.337	372.80214
876.509	309.8476
876.681	375.84892
876.853	358.19185
877.025	345.8595
877.197	231.2334
877.369	154.9894
877.541	339.62115
877.712	108.35943
877.884	171.00579
878.056	342.1176
878.228	188.11489
878.4	383.33295
878.571	165.77151
878.743	119.77255
878.915	281.69053
879.086	139.54576
879.258	174.783
879.43	184.51786
879.601	143.84114
879.773	133.49331
879.945	26.08495
880.116	53.98856
880.288	31.94044
880.459	34.4167
880.631	27.18005
880.802	31.78243
880.974	28.37479
881.145	20.19646
881.317	26.6592
881.488	21.75572
881.66	23.24818
881.831	21.38221
882.002	29.30525
882.174	22.2708
882.345	28.35121
882.517	16.91721
882.688	35.95363
882.859	28.92579
883.03	47.30204
883.202	45.77961
883.373	38.02592
883.544	40.80642
883.715	68.00891
883.887	59.68239
884.058	49.3983
884.229	74.09845
884.4	77.26666
884.571	91.65901
884.742	81.90157
884.914	84.96314
885.085	125.56657
885.256	166.43999
885.427	139.14312
885.598	169.97278
885.769	168.32591
885.94	148.71639
886.111	105.9099
886.282	189.13429
886.453	180.36619
886.624	125.25165
886.795	218.89496
886.966	190.78224
887.136	219.14762
887.307	160.8173
887.478	322.13248
887.649	274.58244
887.82	257.90109
887.991	218.36251
888.161	344.67539
888.332	368.60884
888.503	154.10496
888.674	382.37367
888.844	540.50921
889.015	327.99864
889.186	231.58085
889.356	513.88681
889.527	196.3717
889.698	675.86132
889.868	246.86279
890.039	393.69853
890.209	287.92487
890.38	397.26278
890.551	356.7676
890.721	412.23427
890.892	450.84891
891.062	433.12401
891.233	509.91908
891.403	421.86613
891.574	324.84183
891.744	281.20057
891.914	339.55444
892.085	381.6583
892.255	112.85231
892.425	429.21178
892.596	320.03009
892.766	408.74693
892.936	460.79538
893.107	407.69515
893.277	156.69365
893.447	186.82475
893.618	123.05809
893.788	190.83304
893.958	117.19151
894.128	100.18763
894.298	119.74546
894.468	149.87966
894.639	68.77893
894.809	43.99971
894.979	66.37915
895.149	85.83657
895.319	71.58173
895.489	104.22924
895.659	134.01881
895.829	83.9803
895.999	86.73991
896.169	77.41651
896.339	101.47104
896.509	192.7415
896.679	204.7067
896.849	224.5084
897.019	281.01575
897.189	252.85542
897.358	215.15031
897.528	379.08779
897.698	243.25958
897.868	342.17878
898.038	657.35585
898.208	624.04762
898.377	232.5621
898.547	991.15102
898.717	1426.75692
898.886	439.80196
899.056	641.10066
899.226	1456.81044
899.395	777.27681
899.565	1256.94222
899.735	864.6538
899.904	922.75047
900.074	1074.15634
900.244	308.83997
900.413	1266.50523
900.583	391.41804
900.752	1371.76161
900.922	974.04158
901.091	192.39775
901.261	1728.35969
901.43	558.33592
901.599	2233.51505
901.769	1418.51682
901.938	1073.29693
902.108	1574.09996
902.277	814.04367
902.446	365.11646
902.616	407.32514
902.785	574.24955
902.954	688.25194
903.124	505.38321
903.293	300.99896
903.462	139.45728
903.631	204.2506
903.801	152.83595
903.97	67.94967
904.139	117.69053
904.308	84.37439
904.477	69.25896
904.646	41.85162
904.816	62.20143
904.985	98.32742
905.154	150.38206
