Data from WindowProjectSample_Transmission__40__00040.txt Node

Date: Mon May 05 17:52:55 EDT 2025
User: jessi
Spectrometer: SR400872
Trigger mode: 0
Integration Time (sec): 5.000010E-1
Scans to average: 20
Electric dark correction enabled: true
Nonlinearity correction enabled: true
Boxcar width: 0
XAxis mode: Wavelengths
Number of Pixels in Spectrum: 3648
>>>>>Begin Spectral Data<<<<<
184.909	21826.82704
185.132	-5360.04369
185.355	-3188.12664
185.578	-19004.86946
185.801	1409.43653
186.024	10527.07143
186.247	-1751.53505
186.47	1013.76787
186.693	360.192
186.916	276.04464
187.139	-3846.51048
187.362	3996.28315
187.585	4373.0897
187.808	3962.108
188.031	-103.19011
188.254	-55547.3375
188.476	-554.23378
188.699	6461.46079
188.922	616.98806
189.145	-15847.92105
189.368	-717.6865
189.591	-1443.42406
189.813	3079.71157
190.036	-50681.97358
190.259	-983.88039
190.482	-4311.21736
190.705	7227.63791
190.927	-2409.19738
191.15	13801.32667
191.373	3391.23859
191.595	-8710.95032
191.818	-4252.03214
192.041	-6770.78656
192.263	-3448.97252
192.486	-711.618
192.709	-4101.59785
192.931	8378.54711
193.154	-29146.53702
193.377	-2855.02659
193.599	-2604.83922
193.822	-9742.23171
194.044	-2152.28543
194.267	1184.66868
194.489	273.47861
194.712	-43568.15941
194.934	-32683.21107
195.157	1263.55961
195.379	1366.77276
195.602	-7246.71296
195.824	-1291.05566
196.047	-8695.54787
196.269	2815.42142
196.492	-6322.38171
196.714	28826.0283
196.936	-9046.0391
197.159	-1275.763
197.381	1062.83528
197.604	401.99918
197.826	12732.43646
198.048	-10477.53321
198.271	-2941.57572
198.493	7633.96936
198.715	2468.04474
198.938	-507.30263
199.16	7304.71848
199.382	-103244.10999
199.604	2434.18139
199.827	-1160.04461
200.049	-3155.4471
200.271	15346.32435
200.493	1200.20202
200.715	-40541.04363
200.938	-6097.32452
201.16	-4299.97293
201.382	19763.50748
201.604	2366.52242
201.826	2325.32908
202.048	-1859.64951
202.27	-1906.7874
202.492	-39146.9504
202.715	2939.9598
202.937	-4697.01867
203.159	-6605.84304
203.381	1603.89688
203.603	7237.9987
203.825	6917.35691
204.047	2336.65406
204.269	-2882.00668
204.491	2117.70883
204.713	6022.8205
204.935	-494183.80366
205.156	1168.80284
205.378	-2930.07389
205.6	1563.82309
205.822	156440.99067
206.044	-1152.42974
206.266	1625.73363
206.488	4691.41749
206.71	-5409.37574
206.932	1135.89322
207.153	12504.59849
207.375	-7182.69961
207.597	-39141.72061
207.819	-3006.06857
208.041	2492.51096
208.262	489.16879
208.484	724.14726
208.706	-846.48901
208.927	-842.36698
209.149	571.95384
209.371	-2956.35082
209.593	-280.23195
209.814	-840.73747
210.036	616.49343
210.258	-714.5722
210.479	1785.42969
210.701	1721.4074
210.922	3223.89208
211.144	-3766.63396
211.366	2186.99522
211.587	7097.6539
211.809	-8132.99961
212.03	2489.99332
212.252	416.84614
212.473	2158.68661
212.695	-6317.14926
212.916	2904.8364
213.138	-624.79155
213.359	3907.61757
213.581	5398.60047
213.802	-812.59872
214.024	1152.68505
214.245	2139.91324
214.466	3444.34567
214.688	-3164.08151
214.909	-1206.29096
215.131	-1866.99612
215.352	-3151.12667
215.573	15149.59769
215.795	5347.0459
216.016	5592.28451
216.237	793.01427
216.459	3688.70514
216.68	1773.79185
216.901	5084.65958
217.122	-3497.36023
217.344	-11774.1377
217.565	3504.58975
217.786	9061.13555
218.007	16633.10457
218.228	-639.47713
218.45	5735.86094
218.671	729.49324
218.892	37500.91642
219.113	1507.57198
219.334	-274.39384
219.555	10932.52541
219.776	3247.26169
219.997	23044.59964
220.219	2811.75945
220.44	-11476.01185
220.661	473.93093
220.882	1482.99416
221.103	-1166.9315
221.324	2299.35286
221.545	2438.13556
221.766	-9436.36838
221.987	885.56447
222.208	1767.11994
222.429	4428.69308
222.65	147.20509
222.87	19089.82894
223.091	756.54236
223.312	636.34535
223.533	1379.92349
223.754	1535.87347
223.975	1378.00453
224.196	2027.40493
224.417	1373.54804
224.637	618.93374
224.858	123.786
225.079	1135.03165
225.3	676.29918
225.521	3799.15608
225.741	453.02596
225.962	523.6719
226.183	135.1
226.404	669.80377
226.624	425.37251
226.845	677.44405
227.066	417.32966
227.286	256.87079
227.507	136.49011
227.728	109.73687
227.948	243.43143
228.169	72.32727
228.389	87.3451
228.61	48.4366
228.831	65.49079
229.051	2.06365
229.272	39.77484
229.492	57.22705
229.713	13.4412
229.933	38.25047
230.154	34.7546
230.374	53.96464
230.595	38.35336
230.815	23.96663
231.036	39.51377
231.256	-12.0644
231.477	72.68873
231.697	40.07813
231.917	39.91502
232.138	60.53824
232.358	109.31365
232.579	103.07523
232.799	18.72387
233.019	100.75821
233.24	116.55286
233.46	35.93334
233.68	61.09781
233.901	43.11301
234.121	26.42647
234.341	13.02861
234.561	-6.40202
234.782	20.01119
235.002	71.52888
235.222	-2.63408
235.442	64.94683
235.662	31.43016
235.883	65.92435
236.103	50.81507
236.323	37.77289
236.543	28.20089
236.763	40.28676
236.983	44.69365
237.203	42.14363
237.423	63.98466
237.643	88.79412
237.864	76.83865
238.084	18.06772
238.304	27.09549
238.524	46.0282
238.744	39.12705
238.964	75.18309
239.184	62.65356
239.404	64.14557
239.624	35.39504
239.843	60.93935
240.063	38.04705
240.283	21.73206
240.503	26.13803
240.723	26.42613
240.943	13.70765
241.163	20.4731
241.383	14.45622
241.603	8.02876
241.822	10.0109
242.042	6.15868
242.262	8.40236
242.482	10.31845
242.702	11.09205
242.921	2.90622
243.141	6.7933
243.361	6.37803
243.581	9.34172
243.8	7.10151
244.02	4.46439
244.24	9.69031
244.459	9.51789
244.679	18.01158
244.899	11.37298
245.118	12.84401
245.338	12.35089
245.558	14.19228
245.777	8.15767
245.997	11.2732
246.216	11.13198
246.436	6.84157
246.655	4.79547
246.875	3.38812
247.094	6.4977
247.314	2.12952
247.533	3.80283
247.753	4.4109
247.972	3.46915
248.192	1.31284
248.411	1.71079
248.631	3.47711
248.85	4.77558
249.07	3.86116
249.289	6.03964
249.508	5.23548
249.728	7.87359
249.947	7.35065
250.166	9.03664
250.386	4.43619
250.605	6.87062
250.824	11.35847
251.044	7.74212
251.263	29.35145
251.482	15.20148
251.701	11.98486
251.921	-0.37216
252.14	3.15939
252.359	4.09971
252.578	10.29821
252.798	3.16422
253.017	9.24333
253.236	4.38517
253.455	5.6389
253.674	10.78206
253.893	4.77353
254.112	7.95884
254.331	11.43834
254.551	8.58032
254.77	3.36819
254.989	14.33055
255.208	9.1568
255.427	14.82903
255.646	12.25914
255.865	22.87948
256.084	7.66991
256.303	10.712
256.522	14.1374
256.741	2.89033
256.96	3.04113
257.179	8.62565
257.397	11.3257
257.616	5.7135
257.835	6.0457
258.054	15.58626
258.273	10.95687
258.492	11.2091
258.711	6.73991
258.93	3.006
259.148	4.8293
259.367	4.62948
259.586	5.66291
259.805	2.22294
260.023	5.44212
260.242	3.97434
260.461	2.82529
260.68	1.33993
260.898	4.64766
261.117	1.31852
261.336	0.83319
261.554	3.64304
261.773	3.35743
261.992	0.59732
262.21	3.43747
262.429	3.53852
262.648	7.58663
262.866	8.51312
263.085	5.80143
263.303	5.28888
263.522	9.04842
263.74	9.14054
263.959	15.50566
264.178	7.47084
264.396	6.62933
264.615	4.66743
264.833	11.20866
265.051	9.59994
265.27	10.82513
265.488	11.54273
265.707	6.34509
265.925	11.29773
266.144	4.74982
266.362	5.77125
266.58	5.67825
266.799	5.06098
267.017	6.45411
267.235	5.42768
267.454	3.39376
267.672	1.94779
267.89	4.16757
268.109	4.46376
268.327	4.43498
268.545	0.90659
268.763	3.93479
268.982	1.46481
269.2	4.39971
269.418	3.04845
269.636	1.85889
269.854	4.88043
270.073	3.38
270.291	1.94177
270.509	1.8293
270.727	4.47947
270.945	7.54967
271.163	7.36616
271.381	1.66581
271.599	3.33389
271.817	5.737
272.036	1.81044
272.254	3.03279
272.472	2.64427
272.69	2.64505
272.908	2.41853
273.126	4.52146
273.344	5.49577
273.562	1.95911
273.779	2.46471
273.997	3.68851
274.215	4.35392
274.433	2.97004
274.651	4.63736
274.869	4.90317
275.087	2.89973
275.305	3.98836
275.523	2.59114
275.74	3.00289
275.958	5.50792
276.176	8.59539
276.394	2.66934
276.612	3.23756
276.829	3.38175
277.047	2.82378
277.265	3.07325
277.483	3.53373
277.7	4.32764
277.918	3.3427
278.136	6.55341
278.353	2.84235
278.571	1.79026
278.789	4.46147
279.006	0.87447
279.224	2.96595
279.442	5.18014
279.659	3.43587
279.877	2.45592
280.094	6.12271
280.312	1.11081
280.529	3.53658
280.747	0.94997
280.964	2.78641
281.182	6.20838
281.399	2.91852
281.617	4.0233
281.834	2.60748
282.052	1.9576
282.269	3.33666
282.487	2.63552
282.704	2.19714
282.921	2.21695
283.139	3.33405
283.356	4.17884
283.574	4.01808
283.791	1.91005
284.008	5.82217
284.226	3.10287
284.443	3.35383
284.66	4.57663
284.877	3.57011
285.095	2.15996
285.312	1.60801
285.529	0.83877
285.746	0.85372
285.964	2.071
286.181	1.39631
286.398	2.04631
286.615	2.82063
286.832	2.70319
287.05	0.54356
287.267	1.90396
287.484	1.81636
287.701	2.63661
287.918	2.52223
288.135	2.64111
288.352	1.30121
288.569	1.44116
288.786	2.37136
289.003	2.0589
289.22	3.09066
289.437	1.70971
289.654	3.0016
289.871	3.12442
290.088	3.04974
290.305	2.33462
290.522	1.81282
290.739	2.12224
290.956	3.27165
291.173	3.7606
291.39	3.46392
291.607	2.48121
291.824	1.65715
292.04	1.24653
292.257	2.95833
292.474	3.29938
292.691	1.9484
292.908	0.97296
293.125	1.74609
293.341	1.12323
293.558	5.06138
293.775	1.92996
293.992	2.01708
294.208	0.88053
294.425	1.20133
294.642	1.9419
294.858	2.84385
295.075	0.61574
295.292	2.01996
295.508	2.39644
295.725	4.212
295.942	1.65769
296.158	1.21446
296.375	2.03238
296.591	1.45949
296.808	1.67813
297.024	2.02698
297.241	2.2568
297.458	2.44302
297.674	0.10903
297.891	1.94859
298.107	1.43087
298.323	1.13856
298.54	3.11783
298.756	1.28841
298.973	0.64215
299.189	3.17713
299.406	1.27422
299.622	2.78395
299.838	2.72665
300.055	2.62148
300.271	0.45666
300.487	0.9828
300.704	1.26289
300.92	0.71404
301.136	4.41995
301.353	2.63229
301.569	1.85672
301.785	2.20735
302.001	2.6963
302.218	2.20866
302.434	2.28441
302.65	0.72017
302.866	1.54673
303.083	3.90578
303.299	3.82657
303.515	1.93662
303.731	2.10412
303.947	0.58214
304.163	1.32023
304.379	2.05564
304.595	2.41857
304.812	1.19169
305.028	1.17211
305.244	1.81233
305.46	2.68456
305.676	2.5474
305.892	3.25111
306.108	2.23852
306.324	1.58129
306.54	3.62392
306.756	2.4933
306.972	2.4435
307.187	1.75476
307.403	3.44646
307.619	1.61484
307.835	3.11423
308.051	3.50284
308.267	0.93446
308.483	2.92501
308.699	2.44966
308.914	1.93685
309.13	1.83721
309.346	0.56792
309.562	0.96172
309.778	0.68183
309.993	2.46165
310.209	1.96052
310.425	0.87037
310.641	1.68937
310.856	0.97282
311.072	0.86653
311.288	1.82779
311.503	1.94745
311.719	0.32713
311.935	0.15384
312.15	2.21779
312.366	1.81546
312.581	2.23567
312.797	1.74878
313.013	2.61199
313.228	1.17538
313.444	1.80721
313.659	1.3275
313.875	2.3305
314.09	1.83125
314.306	3.25767
314.521	2.68805
314.737	2.595
314.952	1.90851
315.168	1.88915
315.383	2.20151
315.599	1.79066
315.814	1.4719
316.029	2.55031
316.245	0.68973
316.46	0.55898
316.675	3.08359
316.891	3.4967
317.106	4.58654
317.321	2.2592
317.537	2.39866
317.752	2.71885
317.967	2.63464
318.183	1.17167
318.398	1.60924
318.613	2.72341
318.828	3.27638
319.043	2.75543
319.259	1.73144
319.474	2.20591
319.689	3.17951
319.904	0.51348
320.119	2.65083
320.334	2.28751
320.549	1.61882
320.765	2.90779
320.98	2.18965
321.195	2.66335
321.41	1.83821
321.625	2.69665
321.84	3.83228
322.055	3.67028
322.27	1.29641
322.485	1.12498
322.7	2.28596
322.915	2.80182
323.13	1.10201
323.345	3.22994
323.56	2.99217
323.775	2.66006
323.989	2.34542
324.204	2.2622
324.419	2.99873
324.634	0.92133
324.849	1.83788
325.064	4.95283
325.279	2.84194
325.493	2.36981
325.708	2.85592
325.923	1.31514
326.138	1.3388
326.352	3.53326
326.567	2.92787
326.782	1.5764
326.997	1.33193
327.211	2.53535
327.426	2.29964
327.641	1.47222
327.855	0.68076
328.07	2.23388
328.285	3.54539
328.499	1.57057
328.714	2.29709
328.928	2.62414
329.143	1.87479
329.358	2.74758
329.572	3.0496
329.787	2.99485
330.001	4.27438
330.216	0.85793
330.43	3.76151
330.645	3.67316
330.859	2.95704
331.074	1.45128
331.288	2.23775
331.503	3.14297
331.717	1.02431
331.931	2.11765
332.146	2.05737
332.36	3.67643
332.575	2.42066
332.789	2.3596
333.003	2.05714
333.218	2.46377
333.432	1.44566
333.646	2.78167
333.86	3.48827
334.075	3.42338
334.289	1.52712
334.503	1.16947
334.717	2.19941
334.932	2.45868
335.146	3.25149
335.36	1.77483
335.574	2.58572
335.788	2.4785
336.003	2.97713
336.217	2.50685
336.431	2.59723
336.645	1.44797
336.859	0.92735
337.073	1.74312
337.287	2.28957
337.501	1.07515
337.715	2.30449
337.929	2.75509
338.143	1.11082
338.357	1.87414
338.571	1.23651
338.785	2.403
338.999	1.63369
339.213	1.50494
339.427	0.70238
339.641	3.197
339.855	1.72995
340.069	1.56931
340.283	2.94247
340.497	3.78569
340.711	2.2667
340.924	1.70434
341.138	1.02964
341.352	0.79113
341.566	2.23079
341.78	0.46735
341.993	1.58194
342.207	1.08182
342.421	2.17114
342.635	1.76085
342.848	1.44719
343.062	0.21729
343.276	1.32972
343.49	3.79378
343.703	1.41626
343.917	2.83212
344.131	2.69787
344.344	1.32689
344.558	1.64389
344.771	1.02252
344.985	3.34565
345.199	3.20587
345.412	2.13494
345.626	2.12871
345.839	0.63313
346.053	0.86762
346.266	0.97713
346.48	2.49873
346.693	2.22544
346.907	2.10286
347.12	1.12454
347.334	2.25667
347.547	2.15283
347.76	1.60926
347.974	2.92005
348.187	2.19178
348.401	1.4364
348.614	1.38604
348.827	1.52984
349.041	2.30574
349.254	0.52684
349.467	1.55707
349.681	0.7658
349.894	1.32009
350.107	2.90318
350.32	3.23414
350.534	0.51363
350.747	1.43818
350.96	1.04797
351.173	1.29218
351.386	1.58138
351.6	1.40609
351.813	1.26396
352.026	1.62712
352.239	0.65177
352.452	1.49862
352.665	2.44536
352.878	1.68824
353.092	3.38537
353.305	2.35512
353.518	2.00512
353.731	1.08208
353.944	2.73366
354.157	1.21993
354.37	0.9556
354.583	1.03524
354.796	0.30883
355.009	2.59251
355.222	1.94757
355.435	1.83086
355.647	2.44738
355.86	0.91828
356.073	1.65312
356.286	1.20747
356.499	2.19262
356.712	1.85752
356.925	2.15787
357.138	2.28455
357.35	0.91965
357.563	1.4541
357.776	1.71877
357.989	1.24397
358.201	1.99151
358.414	1.66571
358.627	2.65607
358.84	1.37581
359.052	0.71027
359.265	0.89392
359.478	2.41205
359.69	-0.29067
359.903	2.00835
360.116	2.15369
360.328	0.30681
360.541	2.17047
360.753	0.68302
360.966	1.05202
361.179	1.16216
361.391	1.06258
361.604	0.73278
361.816	1.1199
362.029	0.90718
362.241	0.78086
362.454	0.9567
362.666	0.74159
362.879	1.43637
363.091	1.09669
363.304	0.80491
363.516	1.32559
363.728	0.66283
363.941	1.76936
364.153	1.02212
364.366	-0.11798
364.578	0.59738
364.79	1.69535
365.003	1.25182
365.215	0.94685
365.427	1.67957
365.639	2.22353
365.852	1.5692
366.064	3.18643
366.276	1.09898
366.488	1.71964
366.701	1.12657
366.913	1.30469
367.125	1.18508
367.337	0.73698
367.549	1.08221
367.762	1.55849
367.974	1.47008
368.186	0.75467
368.398	2.06467
368.61	1.87813
368.822	1.89819
369.034	1.44469
369.246	1.71644
369.458	3.53853
369.67	0.76665
369.882	2.81464
370.094	0.14682
370.306	2.73475
370.518	1.2436
370.73	0.83974
370.942	0.78454
371.154	1.19409
371.366	0.89191
371.578	1.52444
371.79	0.6865
372.002	2.21912
372.214	2.66564
372.425	1.44227
372.637	2.16987
372.849	1.59012
373.061	-0.03674
373.273	1.6529
373.484	1.55958
373.696	2.00967
373.908	-0.02649
374.12	2.18512
374.331	1.5273
374.543	0.82043
374.755	0.6643
374.967	1.48786
375.178	1.76025
375.39	1.13722
375.602	1.42048
375.813	0.43455
376.025	0.48138
376.236	1.40016
376.448	1.46059
376.66	0.88633
376.871	0.9209
377.083	2.28125
377.294	2.16178
377.506	0.96738
377.717	2.17207
377.929	1.45162
378.14	0.70751
378.352	1.56878
378.563	1.42942
378.775	2.26166
378.986	0.72193
379.197	1.29237
379.409	0.92654
379.62	1.82696
379.832	1.65927
380.043	1.12772
380.254	1.28258
380.466	0.48476
380.677	3.31699
380.888	2.75982
381.1	3.03565
381.311	2.83443
381.522	1.21987
381.733	3.32596
381.945	1.07451
382.156	1.4343
382.367	0.88346
382.578	3.30657
382.789	3.1101
383.001	1.03791
383.212	2.17601
383.423	2.2877
383.634	2.0929
383.845	1.57862
384.056	1.00333
384.267	1.36003
384.478	1.17811
384.69	0.51154
384.901	1.54601
385.112	1.43784
385.323	2.30123
385.534	1.58169
385.745	1.40869
385.956	1.54713
386.167	0.57044
386.378	1.61291
386.588	0.50339
386.799	0.84742
387.01	0.1447
387.221	1.83156
387.432	1.06866
387.643	2.52744
387.854	1.1802
388.065	1.04309
388.275	1.16399
388.486	0.97254
388.697	1.08759
388.908	1.01315
389.119	2.07696
389.329	2.29143
389.54	1.33138
389.751	1.46395
389.962	2.10365
390.172	1.53109
390.383	0.84422
390.594	0.85696
390.804	0.7996
391.015	0.89157
391.226	1.29671
391.436	1.51471
391.647	1.45201
391.858	1.67502
392.068	0.14833
392.279	0.47979
392.489	1.2137
392.7	2.07647
392.91	0.53766
393.121	0.79198
393.331	1.5017
393.542	2.01663
393.752	1.25344
393.963	1.43809
394.173	1.24266
394.384	1.67188
394.594	1.25293
394.804	0.52588
395.015	1.30776
395.225	1.55322
395.436	0.58827
395.646	1.63555
395.856	0.68849
396.067	0.42215
396.277	1.95638
396.487	1.54012
396.697	1.32471
396.908	1.62946
397.118	1.65874
397.328	1.4355
397.538	2.00698
397.749	0.81172
397.959	1.82496
398.169	1.70555
398.379	0.45948
398.589	1.85071
398.8	1.37713
399.01	1.13154
399.22	1.10304
399.43	2.83335
399.64	1.13465
399.85	1.79086
400.06	1.2761
400.27	0.87321
400.48	1.32795
400.69	2.53339
400.9	0.9958
401.11	0.81391
401.32	1.97673
401.53	1.14488
401.74	2.51076
401.95	1.82482
402.16	0.61305
402.37	1.64783
402.58	0.99362
402.79	1.91404
403	2.17287
403.209	1.00013
403.419	2.01115
403.629	0.97033
403.839	1.99899
404.049	1.94192
404.258	0.95329
404.468	0.89874
404.678	1.69627
404.888	2.00111
405.097	0.7951
405.307	1.34305
405.517	1.7984
405.727	1.56482
405.936	1.19107
406.146	1.54652
406.356	2.24686
406.565	1.43227
406.775	1.05741
406.984	1.08554
407.194	2.56527
407.404	1.53763
407.613	1.84903
407.823	2.08232
408.032	2.11231
408.242	2.3002
408.451	1.14201
408.661	1.51655
408.87	2.76384
409.08	1.20171
409.289	1.78147
409.499	1.65349
409.708	1.7135
409.918	0.43234
410.127	1.59342
410.336	2.57183
410.546	1.99697
410.755	1.3037
410.964	1.38353
411.174	1.11725
411.383	1.94035
411.592	1.96548
411.802	1.00054
412.011	2.24187
412.22	1.59504
412.429	2.7817
412.639	2.61703
412.848	2.48497
413.057	2.53962
413.266	2.57362
413.475	1.7587
413.685	2.16075
413.894	2.34922
414.103	2.55927
414.312	2.3092
414.521	1.71926
414.73	1.80887
414.939	3.20324
415.148	2.20789
415.357	1.9942
415.566	1.56686
415.776	1.62946
415.985	1.52598
416.194	2.29199
416.403	2.83251
416.611	1.00746
416.82	1.36269
417.029	1.77276
417.238	1.38558
417.447	1.17992
417.656	1.43032
417.865	1.24778
418.074	1.40916
418.283	1.58624
418.492	2.0613
418.7	1.97957
418.909	2.55265
419.118	1.89422
419.327	2.01396
419.536	1.83522
419.744	1.43573
419.953	2.48156
420.162	2.46311
420.371	1.57768
420.579	1.52803
420.788	2.52953
420.997	2.38101
421.205	2.45581
421.414	2.25346
421.623	2.22086
421.831	1.90987
422.04	2.57205
422.249	1.84478
422.457	2.45646
422.666	1.79181
422.874	2.71694
423.083	2.69517
423.291	2.66781
423.5	2.19734
423.708	2.5424
423.917	2.829
424.125	2.45564
424.334	2.12182
424.542	3.77308
424.751	3.1293
424.959	2.91727
425.167	3.24633
425.376	3.09809
425.584	2.43481
425.793	2.61366
426.001	1.94123
426.209	2.61965
426.418	1.84483
426.626	1.99297
426.834	1.78585
427.042	2.19854
427.251	1.87142
427.459	2.63825
427.667	2.2654
427.875	1.59181
428.084	1.92912
428.292	3.00525
428.5	2.4567
428.708	1.77953
428.916	1.64602
429.124	2.35246
429.333	1.97404
429.541	2.03511
429.749	2.29562
429.957	2.2412
430.165	3.75024
430.373	1.51896
430.581	2.41051
430.789	3.11776
430.997	1.95057
431.205	1.88565
431.413	2.28964
431.621	2.09408
431.829	2.62467
432.037	2.07775
432.245	2.49827
432.453	2.48568
432.661	2.07411
432.869	3.35687
433.076	1.74247
433.284	2.16454
433.492	2.53875
433.7	2.85363
433.908	2.06624
434.116	2.32635
434.323	2.3799
434.531	2.22087
434.739	2.58213
434.947	2.86804
435.154	2.70884
435.362	2.4419
435.57	2.24268
435.778	2.10115
435.985	2.55532
436.193	2.23302
436.401	2.96628
436.608	2.43075
436.816	2.14883
437.023	3.25333
437.231	3.23581
437.439	2.5192
437.646	2.72529
437.854	2.60131
438.061	2.72963
438.269	2.37471
438.476	2.74705
438.684	2.45226
438.891	2.18501
439.099	1.94021
439.306	1.73582
439.514	1.9224
439.721	2.63711
439.929	2.16179
440.136	2.82821
440.343	2.76336
440.551	2.49698
440.758	3.95655
440.965	3.02647
441.173	2.71226
441.38	2.36549
441.587	2.791
441.795	2.36326
442.002	2.64231
442.209	2.58766
442.416	2.85431
442.624	2.83483
442.831	2.69604
443.038	2.2312
443.245	1.99823
443.452	2.2956
443.66	2.86735
443.867	2.16362
444.074	2.23484
444.281	2.07914
444.488	2.35341
444.695	2.40391
444.902	2.18111
445.109	2.84197
445.316	2.44908
445.523	2.3971
445.73	2.33167
445.937	2.93056
446.144	3.18754
446.351	3.24302
446.558	2.61408
446.765	3.58949
446.972	3.64431
447.179	3.0051
447.386	3.8466
447.593	2.79244
447.8	3.58069
448.007	2.67977
448.214	2.65501
448.42	2.33164
448.627	3.07935
448.834	2.51382
449.041	2.44929
449.248	2.40767
449.454	2.99225
449.661	3.55108
449.868	2.37524
450.075	2.32191
450.281	1.58679
450.488	1.93247
450.695	2.17633
450.901	2.20195
451.108	2.2635
451.315	3.06441
451.521	2.48152
451.728	3.08503
451.935	2.16112
452.141	2.48224
452.348	2.53415
452.554	2.40247
452.761	2.33785
452.967	3.39711
453.174	2.67248
453.38	2.69061
453.587	1.96306
453.793	2.60457
454	3.23241
454.206	3.74906
454.413	3.17904
454.619	2.79405
454.825	2.30973
455.032	2.92511
455.238	3.15339
455.445	2.03922
455.651	2.73498
455.857	1.67729
456.064	2.42137
456.27	2.33766
456.476	2.48312
456.682	1.99722
456.889	2.88047
457.095	2.84693
457.301	4.09029
457.507	2.71177
457.714	2.6033
457.92	2.52144
458.126	2.17015
458.332	2.39346
458.538	2.18815
458.744	2.32573
458.951	2.31244
459.157	3.82517
459.363	2.78069
459.569	2.75514
459.775	3.46977
459.981	2.60966
460.187	3.08375
460.393	3.46606
460.599	3.90572
460.805	3.16083
461.011	2.91979
461.217	3.32001
461.423	3.24895
461.629	2.64436
461.835	3.08593
462.041	2.61195
462.247	3.60786
462.453	2.63467
462.658	2.68933
462.864	3.1352
463.07	2.94956
463.276	2.80755
463.482	2.885
463.688	3.3541
463.893	2.56088
464.099	2.62502
464.305	3.59946
464.511	2.46335
464.716	2.66505
464.922	3.15061
465.128	2.41857
465.333	3.7411
465.539	3.05011
465.745	2.66953
465.95	2.83972
466.156	4.39153
466.362	3.51144
466.567	2.67874
466.773	2.51023
466.978	3.65994
467.184	2.24278
467.389	1.77586
467.595	3.00839
467.8	2.32403
468.006	3.57952
468.211	3.34668
468.417	2.23774
468.622	3.0393
468.828	3.32949
469.033	3.05396
469.239	4.33883
469.444	2.60103
469.649	3.43545
469.855	2.71845
470.06	2.89993
470.266	2.25433
470.471	3.1954
470.676	3.0836
470.881	2.01159
471.087	3.54394
471.292	4.35788
471.497	2.23008
471.703	2.75099
471.908	2.53845
472.113	2.91551
472.318	3.36315
472.523	2.32137
472.729	3.05302
472.934	3.28701
473.139	2.57632
473.344	3.10231
473.549	3.5162
473.754	2.46233
473.959	4.32721
474.164	2.44967
474.369	2.71547
474.575	3.32614
474.78	2.91445
474.985	2.55576
475.19	1.9196
475.395	2.39228
475.6	2.81
475.804	3.62328
476.009	2.71922
476.214	2.88236
476.419	2.63153
476.624	1.93714
476.829	2.28878
477.034	3.12668
477.239	2.33371
477.444	3.16477
477.648	2.99785
477.853	3.1126
478.058	2.60066
478.263	2.35621
478.468	2.11702
478.672	2.26718
478.877	3.40704
479.082	3.52956
479.287	2.95951
479.491	2.80369
479.696	2.24045
479.901	3.13792
480.105	3.08187
480.31	2.41113
480.515	2.59415
480.719	3.83792
480.924	2.38643
481.128	2.1337
481.333	2.71518
481.538	2.77511
481.742	2.49606
481.947	3.02918
482.151	3.26867
482.356	3.18864
482.56	3.92552
482.765	4.16537
482.969	5.14607
483.174	5.80364
483.378	7.00208
483.582	6.96038
483.787	8.00878
483.991	7.87113
484.196	8.37611
484.4	8.18556
484.604	9.01592
484.809	7.77662
485.013	7.56067
485.217	6.90906
485.422	6.11971
485.626	5.54939
485.83	5.14399
486.034	4.73644
486.239	4.85195
486.443	4.75272
486.647	4.60403
486.851	5.25495
487.055	5.75818
487.26	5.142
487.464	5.64125
487.668	5.27401
487.872	5.42111
488.076	5.91953
488.28	5.55881
488.484	5.20179
488.688	5.17291
488.892	5.24061
489.096	4.96697
489.3	4.4193
489.504	4.21138
489.708	4.14205
489.912	4.00225
490.116	3.9654
490.32	3.225
490.524	3.79254
490.728	3.92297
490.932	3.88179
491.136	3.97715
491.34	4.68575
491.544	4.90685
491.748	4.64131
491.951	4.90567
492.155	4.58703
492.359	4.69083
492.563	4.07103
492.767	3.87605
492.97	3.66163
493.174	3.21883
493.378	3.06424
493.582	2.42407
493.785	2.62534
493.989	2.70888
494.193	2.81037
494.396	2.44657
494.6	3.06894
494.804	2.63845
495.007	2.30143
495.211	2.38127
495.414	2.53061
495.618	2.70736
495.822	3.2148
496.025	2.56258
496.229	2.90797
496.432	2.2066
496.636	2.64898
496.839	2.40516
497.043	3.30527
497.246	2.7595
497.45	2.35813
497.653	2.50457
497.856	2.66388
498.06	1.98844
498.263	2.48505
498.467	2.24357
498.67	2.97614
498.873	2.67302
499.077	2.37255
499.28	2.43767
499.483	2.70556
499.686	2.82346
499.89	2.78707
500.093	3.03333
500.296	2.28717
500.499	3.36456
500.703	2.61541
500.906	2.74583
501.109	3.54166
501.312	2.68376
501.515	2.56675
501.719	2.78182
501.922	3.45887
502.125	2.74451
502.328	2.55654
502.531	2.04044
502.734	2.59507
502.937	1.71059
503.14	2.6926
503.343	2.02451
503.546	2.36664
503.749	2.11227
503.952	2.83181
504.155	2.09668
504.358	2.78309
504.561	2.49864
504.764	1.97423
504.967	2.49793
505.17	2.48249
505.373	3.25758
505.576	2.67229
505.778	2.87636
505.981	2.16894
506.184	3.1418
506.387	1.7517
506.59	3.56545
506.793	3.07849
506.995	2.74111
507.198	1.63404
507.401	2.5727
507.604	2.72939
507.806	2.00868
508.009	2.0858
508.212	2.79439
508.414	2.0514
508.617	2.05663
508.82	2.40617
509.022	3.02939
509.225	2.42306
509.427	1.70343
509.63	3.00447
509.833	2.34745
510.035	2.27082
510.238	1.63124
510.44	3.04407
510.643	1.45275
510.845	3.46799
511.048	2.59364
511.25	2.10522
511.453	2.3365
511.655	2.54929
511.858	2.23165
512.06	2.78276
512.262	2.40693
512.465	2.75779
512.667	1.99924
512.869	1.86922
513.072	2.52959
513.274	2.79788
513.476	2.58449
513.679	2.82768
513.881	1.87595
514.083	3.29944
514.286	2.06433
514.488	2.20224
514.69	1.93664
514.892	1.75595
515.094	2.57418
515.297	2.18306
515.499	2.54746
515.701	1.99867
515.903	3.21951
516.105	3.22725
516.307	2.78498
516.509	1.41425
516.711	1.748
516.913	2.44024
517.116	2.27147
517.318	2.03025
517.52	2.81174
517.722	2.51256
517.924	1.58099
518.126	2.35855
518.328	1.82144
518.529	2.48986
518.731	3.2947
518.933	1.92442
519.135	2.1446
519.337	2.90214
519.539	2.34474
519.741	1.42671
519.943	2.04197
520.145	2.15791
520.346	2.48109
520.548	2.06586
520.75	2.36473
520.952	2.08476
521.153	2.31988
521.355	2.52451
521.557	1.8174
521.759	2.48079
521.96	2.2873
522.162	1.85216
522.364	2.77336
522.565	2.09744
522.767	2.6049
522.969	2.90838
523.17	2.52876
523.372	2.62391
523.573	1.8089
523.775	2.12207
523.977	1.88132
524.178	3.32157
524.38	1.927
524.581	2.53749
524.783	2.00003
524.984	2.49581
525.186	2.17025
525.387	2.45815
525.589	2.25324
525.79	2.15236
525.991	1.90568
526.193	2.49408
526.394	1.68814
526.596	2.56982
526.797	2.46486
526.998	2.18217
527.2	1.89404
527.401	2.96939
527.602	2.85947
527.803	3.85644
528.005	3.62227
528.206	4.08323
528.407	4.38751
528.608	4.1207
528.81	4.32961
529.011	3.88032
529.212	4.8808
529.413	4.26304
529.614	4.02134
529.815	4.17423
530.017	3.92346
530.218	3.41282
530.419	2.81782
530.62	2.95464
530.821	2.84598
531.022	2.03039
531.223	2.75681
531.424	2.83102
531.625	2.6241
531.826	2.46153
532.027	2.46545
532.228	3.23652
532.429	2.65174
532.63	2.6236
532.831	2.88899
533.032	2.98562
533.233	3.30768
533.433	3.1966
533.634	3.41675
533.835	2.93395
534.036	2.63809
534.237	2.82967
534.438	2.55956
534.638	2.09605
534.839	2.13322
535.04	2.52481
535.241	1.9603
535.441	2.86561
535.642	2.44245
535.843	1.71391
536.043	1.86362
536.244	1.98075
536.445	2.04851
536.645	2.73406
536.846	2.34121
537.047	3.03771
537.247	1.96674
537.448	2.0781
537.648	2.11582
537.849	2.20568
538.049	2.15794
538.25	2.50991
538.451	2.3097
538.651	1.86404
538.851	2.5752
539.052	2.83472
539.252	2.61977
539.453	2.33787
539.653	2.17189
539.854	2.15301
540.054	2.03219
540.254	2.8394
540.455	2.97746
540.655	2.4064
540.855	2.91137
541.056	3.35258
541.256	3.05052
541.456	3.76574
541.657	3.19145
541.857	4.03755
542.057	2.85898
542.257	2.83869
542.458	3.54194
542.658	3.83496
542.858	2.53516
543.058	3.22098
543.258	2.84209
543.458	2.02088
543.659	1.88023
543.859	2.62724
544.059	2.52017
544.259	2.23817
544.459	2.74784
544.659	2.01481
544.859	2.42232
545.059	2.05847
545.259	2.56785
545.459	2.39195
545.659	2.69193
545.859	2.3554
546.059	2.43488
546.259	1.84307
546.459	1.50646
546.659	1.81119
546.859	2.56936
547.059	2.47638
547.258	2.50148
547.458	2.53617
547.658	1.77075
547.858	1.86624
548.058	2.47406
548.258	2.27511
548.457	1.97858
548.657	3.85386
548.857	2.3298
549.057	3.06067
549.256	2.79261
549.456	2.43929
549.656	1.55737
549.855	3.90345
550.055	2.46333
550.255	3.64534
550.454	2.87332
550.654	3.42318
550.853	3.63116
551.053	3.21151
551.253	2.86538
551.452	3.20068
551.652	1.82791
551.851	1.69797
552.051	2.27365
552.25	2.29943
552.45	2.07615
552.649	2.25731
552.849	2.01111
553.048	2.63829
553.248	2.9182
553.447	2.0542
553.646	3.05486
553.846	4.21804
554.045	3.51854
554.244	2.05591
554.444	3.58733
554.643	2.29909
554.842	3.61749
555.042	4.10406
555.241	2.5257
555.44	2.35253
555.64	2.98336
555.839	3.72868
556.038	3.20165
556.237	2.55131
556.436	2.86676
556.636	3.01988
556.835	2.27994
557.034	3.85262
557.233	2.91262
557.432	2.09079
557.631	3.58076
557.83	2.91081
558.029	2.50685
558.228	2.62032
558.427	2.39135
558.626	3.24755
558.825	2.38085
559.024	2.93734
559.223	4.14815
559.422	2.89655
559.621	3.30112
559.82	1.59586
560.019	3.07163
560.218	2.56099
560.417	1.17191
560.616	2.69684
560.815	5.10525
561.014	1.94994
561.212	3.80912
561.411	3.00513
561.61	2.054
561.809	2.7878
562.008	4.16573
562.206	2.8657
562.405	3.33114
562.604	2.99027
562.803	3.18501
563.001	3.11717
563.2	2.09415
563.399	3.42882
563.597	2.26712
563.796	3.26052
563.995	2.05182
564.193	3.6622
564.392	2.6979
564.59	4.5398
564.789	1.66194
564.988	2.73758
565.186	3.02262
565.385	2.77769
565.583	2.58197
565.782	2.83334
565.98	2.63735
566.179	2.75322
566.377	2.00943
566.575	2.19642
566.774	3.61204
566.972	3.45019
567.171	4.14122
567.369	3.87706
567.567	3.06016
567.766	3.186
567.964	1.6593
568.162	3.49063
568.361	3.90774
568.559	2.92602
568.757	3.20242
568.956	3.14822
569.154	3.07678
569.352	3.61217
569.55	2.93921
569.748	3.10902
569.947	2.4179
570.145	2.45859
570.343	2.3402
570.541	4.15507
570.739	2.03497
570.937	3.07559
571.135	3.20556
571.333	4.61188
571.532	4.28906
571.73	3.16544
571.928	3.61675
572.126	3.51349
572.324	2.66741
572.522	3.75796
572.72	4.72332
572.918	3.16566
573.116	3.29085
573.313	2.99312
573.511	2.9531
573.709	2.91966
573.907	3.59512
574.105	2.8226
574.303	2.13449
574.501	2.20007
574.699	3.35812
574.896	3.24306
575.094	3.60091
575.292	2.32678
575.49	3.79711
575.688	3.12189
575.885	4.14025
576.083	4.67939
576.281	3.49328
576.478	2.83786
576.676	3.82047
576.874	2.59022
577.071	3.31894
577.269	5.06786
577.467	3.00231
577.664	3.56225
577.862	3.93043
578.059	2.95634
578.257	3.98418
578.455	3.4474
578.652	3.41364
578.85	2.1552
579.047	3.76201
579.245	3.42353
579.442	3.68506
579.64	3.3758
579.837	2.2096
580.034	5.69813
580.232	3.48418
580.429	2.95065
580.627	4.17014
580.824	4.67603
581.021	4.16818
581.219	3.3515
581.416	3.14305
581.613	4.87323
581.811	4.65452
582.008	3.17394
582.205	4.39941
582.402	4.1122
582.6	5.01416
582.797	3.98569
582.994	4.33023
583.191	4.59372
583.388	3.97333
583.586	4.50559
583.783	4.98882
583.98	3.09278
584.177	4.17157
584.374	1.62808
584.571	3.66771
584.768	3.96009
584.965	3.68061
585.162	4.6657
585.359	5.31378
585.556	4.04622
585.753	4.45331
585.95	3.01404
586.147	3.34517
586.344	4.38243
586.541	3.73959
586.738	3.19969
586.935	3.9735
587.132	3.48692
587.329	4.98893
587.526	3.92534
587.722	8.38169
587.919	2.99197
588.116	4.3789
588.313	5.371
588.51	5.86011
588.706	3.88126
588.903	4.53894
589.1	4.96973
589.297	6.62837
589.493	4.03529
589.69	4.67376
589.887	3.72087
590.083	3.24378
590.28	3.52132
590.477	5.02087
590.673	4.6308
590.87	5.23879
591.067	3.71482
591.263	4.60539
591.46	4.75981
591.656	3.96889
591.853	5.87879
592.049	3.73784
592.246	3.78942
592.442	5.32334
592.639	5.41907
592.835	3.42888
593.032	4.62091
593.228	3.15888
593.425	3.26185
593.621	3.08644
593.817	4.5464
594.014	3.65393
594.21	4.56752
594.406	5.27597
594.603	4.4956
594.799	3.76915
594.995	2.37412
595.192	5.15953
595.388	3.80975
595.584	3.78031
595.78	3.07615
595.977	6.6806
596.173	5.60924
596.369	3.982
596.565	3.33872
596.761	3.00148
596.957	5.08806
597.154	3.43845
597.35	3.69257
597.546	3.57119
597.742	4.49611
597.938	4.38618
598.134	3.52277
598.33	4.431
598.526	5.39948
598.722	4.84323
598.918	5.95541
599.114	5.20903
599.31	3.49646
599.506	4.58668
599.702	4.05982
599.898	4.84049
600.094	5.56809
600.29	5.45146
600.485	5.28289
600.681	4.11656
600.877	6.0938
601.073	4.8771
601.269	6.79486
601.465	6.06335
601.66	3.90477
601.856	3.01473
602.052	6.64483
602.248	4.37517
602.443	2.79239
602.639	3.30339
602.835	3.87836
603.03	3.79234
603.226	5.22493
603.422	3.65955
603.617	4.30386
603.813	4.08851
604.009	3.76966
604.204	5.42395
604.4	3.17164
604.595	5.19595
604.791	3.61839
604.986	4.5904
605.182	3.55281
605.377	3.9711
605.573	4.0095
605.768	4.43588
605.964	4.90469
606.159	5.2254
606.355	5.59286
606.55	4.43321
606.746	5.59167
606.941	4.61627
607.136	6.36903
607.332	7.35317
607.527	3.69667
607.722	5.07233
607.918	4.63481
608.113	4.03462
608.308	5.3896
608.503	5.17241
608.699	5.01127
608.894	5.13532
609.089	3.85741
609.284	4.95959
609.479	4.09944
609.675	5.07908
609.87	4.31886
610.065	5.188
610.26	5.41642
610.455	5.31555
610.65	4.6219
610.845	5.07043
611.04	5.64879
611.235	4.62583
611.43	4.69676
611.625	4.08015
611.82	6.36994
612.015	4.28995
612.21	6.69385
612.405	3.80481
612.6	6.97257
612.795	6.75744
612.99	6.01512
613.185	3.89261
613.38	4.39667
613.575	5.49117
613.77	8.42864
613.965	3.89364
614.159	4.52569
614.354	6.61242
614.549	6.37652
614.744	5.78605
614.938	4.04676
615.133	4.01249
615.328	6.62608
615.523	6.83507
615.717	8.4657
615.912	4.98704
616.107	5.54767
616.301	4.92788
616.496	4.63535
616.691	7.38447
616.885	6.18296
617.08	8.65013
617.274	6.4912
617.469	7.88133
617.664	6.20339
617.858	4.90783
618.053	5.85146
618.247	5.23511
618.442	3.10846
618.636	7.10276
618.831	4.89536
619.025	4.79454
619.219	9.05036
619.414	2.19845
619.608	5.32374
619.803	4.5126
619.997	7.93896
620.191	6.78579
620.386	6.01734
620.58	5.42917
620.774	3.59388
620.969	3.74943
621.163	5.79156
621.357	4.17814
621.551	5.50547
621.746	5.90201
621.94	5.2907
622.134	9.43622
622.328	8.1746
622.522	4.04541
622.716	6.99863
622.911	6.70739
623.105	6.51956
623.299	5.92306
623.493	9.47725
623.687	4.65728
623.881	4.93814
624.075	6.50708
624.269	7.13633
624.463	3.52558
624.657	3.67434
624.851	6.45938
625.045	6.58671
625.239	6.5097
625.433	4.70489
625.627	7.71549
625.821	4.82184
626.015	4.51128
626.209	5.49974
626.403	3.3731
626.596	5.99919
626.79	6.25273
626.984	4.14915
627.178	6.00942
627.372	5.95011
627.565	6.29447
627.759	3.97397
627.953	4.29067
628.147	5.8243
628.34	6.49854
628.534	8.12959
628.728	5.1877
628.921	6.8312
629.115	6.77549
629.309	6.73457
629.502	7.13185
629.696	6.04794
629.89	5.89737
630.083	6.15761
630.277	6.12916
630.47	8.06504
630.664	5.68147
630.857	4.26938
631.051	7.38415
631.244	7.40351
631.438	7.35119
631.631	5.26098
631.825	7.69172
632.018	6.75471
632.212	8.29606
632.405	7.71371
632.598	5.16722
632.792	6.05803
632.985	3.16666
633.178	5.62083
633.372	5.79624
633.565	5.98465
633.758	7.51654
633.952	5.06008
634.145	4.89044
634.338	5.97223
634.531	5.47294
634.724	5.00415
634.918	6.10121
635.111	5.72408
635.304	5.57761
635.497	9.00652
635.69	6.62604
635.883	7.74752
636.077	4.79208
636.27	6.71959
636.463	6.72213
636.656	6.60238
636.849	5.8649
637.042	7.0903
637.235	9.17661
637.428	7.24481
637.621	6.83579
637.814	8.50781
638.007	8.49827
638.2	8.65535
638.393	9.17476
638.586	4.75563
638.778	5.94425
638.971	6.49622
639.164	8.73028
639.357	7.0564
639.55	9.01671
639.743	7.5564
639.935	7.57939
640.128	10.04431
640.321	8.01978
640.514	7.15801
640.707	10.44123
640.899	8.19584
641.092	4.49014
641.285	22.77544
641.477	3.8405
641.67	10.78179
641.863	9.02481
642.055	7.29801
642.248	7.06477
642.441	6.79639
642.633	7.86747
642.826	8.61125
643.018	9.16162
643.211	10.12956
643.403	10.52576
643.596	10.67038
643.788	9.93747
643.981	6.42911
644.173	8.35391
644.366	6.36515
644.558	4.33076
644.751	8.7415
644.943	5.56369
645.135	10.08511
645.328	10.18979
645.52	8.43185
645.712	8.78564
645.905	12.68778
646.097	5.61161
646.289	8.00245
646.482	11.12226
646.674	5.99021
646.866	9.10887
647.058	8.1083
647.251	6.01049
647.443	6.4998
647.635	6.96568
647.827	6.10602
648.019	5.63895
648.211	7.32318
648.404	7.38428
648.596	10.36293
648.788	8.29183
648.98	7.62684
649.172	8.46258
649.364	8.23976
649.556	4.73619
649.748	11.64323
649.94	5.87266
650.132	8.79852
650.324	6.32568
650.516	6.33813
650.708	9.05898
650.9	5.27936
651.092	4.82532
651.284	5.08279
651.476	5.39913
651.667	8.44241
651.859	10.23116
652.051	7.45253
652.243	7.9045
652.435	6.98106
652.627	8.3596
652.818	8.29854
653.01	4.97876
653.202	6.54626
653.394	6.97577
653.585	8.36723
653.777	15.47297
653.969	10.77411
654.16	9.89266
654.352	6.47004
654.544	7.6391
654.735	9.92641
654.927	7.81241
655.118	10.38685
655.31	9.59881
655.502	9.77361
655.693	7.29964
655.885	8.85514
656.076	10.73567
656.268	8.62109
656.459	10.45589
656.651	10.81551
656.842	7.36542
657.034	6.68161
657.225	9.48275
657.416	10.55271
657.608	10.3814
657.799	8.03684
657.99	10.14176
658.182	6.54099
658.373	6.45371
658.564	9.95309
658.756	8.13102
658.947	7.37863
659.138	6.10507
659.33	6.57719
659.521	6.43973
659.712	7.40761
659.903	7.14733
660.094	6.74208
660.286	5.14665
660.477	10.71121
660.668	8.85252
660.859	7.6399
661.05	5.57985
661.241	8.9254
661.432	8.54167
661.623	7.33067
661.814	7.15029
662.006	5.32763
662.197	8.90579
662.388	10.39777
662.579	9.08676
662.77	10.82344
662.96	13.72614
663.151	10.51151
663.342	5.32272
663.533	9.42008
663.724	8.38213
663.915	12.05933
664.106	8.67875
664.297	12.27609
664.488	9.71937
664.678	7.47247
664.869	10.33529
665.06	10.22104
665.251	8.82135
665.442	9.87816
665.632	6.93357
665.823	13.03884
666.014	3.58332
666.204	10.05781
666.395	11.77712
666.586	14.03402
666.776	10.46792
666.967	12.99192
667.158	8.96509
667.348	12.49256
667.539	7.16191
667.729	10.85331
667.92	7.41589
668.111	10.93365
668.301	10.63572
668.492	8.20735
668.682	9.11434
668.873	8.65298
669.063	6.422
669.253	9.29195
669.444	12.24382
669.634	9.01599
669.825	12.70077
670.015	11.13498
670.206	7.72935
670.396	13.43044
670.586	8.62752
670.777	10.19793
670.967	5.04582
671.157	9.00311
671.347	7.84995
671.538	12.62848
671.728	10.79312
671.918	13.52168
672.108	11.52619
672.299	9.04604
672.489	9.90722
672.679	8.02114
672.869	10.43923
673.059	14.17347
673.249	10.18259
673.44	7.16319
673.63	8.91822
673.82	11.9623
674.01	7.40177
674.2	10.91673
674.39	15.65887
674.58	10.9395
674.77	9.9177
674.96	9.38804
675.15	19.01447
675.34	12.26381
675.53	10.23502
675.72	8.43803
675.91	6.18146
676.099	14.02736
676.289	15.40211
676.479	12.55906
676.669	8.78968
676.859	11.33505
677.049	8.36166
677.238	10.14955
677.428	13.74419
677.618	10.95099
677.808	14.24384
677.997	11.01048
678.187	7.97592
678.377	9.7217
678.567	8.56544
678.756	8.98584
678.946	9.40237
679.136	6.82002
679.325	8.2271
679.515	7.80437
679.704	6.99851
679.894	11.73255
680.084	10.22841
680.273	12.49646
680.463	7.29995
680.652	7.66808
680.842	9.54172
681.031	11.75344
681.221	7.57991
681.41	11.08623
681.6	9.4307
681.789	11.32557
681.978	12.60593
682.168	10.49908
682.357	10.39193
682.547	11.20093
682.736	10.80017
682.925	13.27602
683.115	12.84812
683.304	11.66199
683.493	10.50229
683.682	11.49358
683.872	11.51335
684.061	13.57206
684.25	12.20864
684.439	16.77432
684.629	12.35607
684.818	18.82731
685.007	10.71236
685.196	9.58294
685.385	15.91192
685.574	11.95188
685.763	11.68288
685.952	11.68201
686.142	7.83486
686.331	14.43013
686.52	7.23366
686.709	16.36659
686.898	15.69496
687.087	13.40207
687.276	15.41997
687.465	14.54042
687.654	10.51521
687.842	15.06457
688.031	7.89243
688.22	15.34069
688.409	12.10293
688.598	12.07655
688.787	18.08505
688.976	11.80244
689.165	16.77428
689.353	10.43941
689.542	12.96247
689.731	14.69424
689.92	17.74286
690.108	13.85975
690.297	10.89928
690.486	12.42675
690.675	13.64535
690.863	16.6996
691.052	16.27938
691.241	12.86934
691.429	12.88893
691.618	15.94916
691.806	9.04584
691.995	11.66655
692.184	12.52031
692.372	11.39889
692.561	12.20276
692.749	13.37371
692.938	21.72819
693.126	14.13934
693.315	12.02453
693.503	14.7282
693.692	15.76135
693.88	15.30447
694.068	18.74852
694.257	13.16524
694.445	14.69276
694.634	7.66763
694.822	15.33409
695.01	16.13753
695.199	19.0468
695.387	17.0648
695.575	16.37451
695.763	12.74047
695.952	12.00251
696.14	7.95873
696.328	11.40627
696.516	13.53605
696.705	13.88411
696.893	13.18095
697.081	8.16337
697.269	15.00251
697.457	9.89893
697.645	8.80025
697.833	14.45441
698.021	9.74184
698.21	10.29186
698.398	11.07447
698.586	8.63953
698.774	8.22007
698.962	11.21203
699.15	8.76701
699.338	7.58877
699.526	12.60502
699.714	9.55048
699.901	9.65568
700.089	13.54801
700.277	9.95129
700.465	11.42393
700.653	14.11376
700.841	12.97628
701.029	10.13289
701.217	16.59169
701.404	12.95716
701.592	17.00173
701.78	20.12249
701.968	12.10825
702.155	12.30813
702.343	9.72651
702.531	17.40367
702.718	15.05933
702.906	11.52393
703.094	11.2536
703.281	17.27996
703.469	12.75025
703.657	17.07013
703.844	25.22745
704.032	19.77885
704.219	12.4266
704.407	15.60245
704.595	19.56851
704.782	15.21051
704.97	13.76398
705.157	12.93003
705.345	20.878
705.532	26.96324
705.719	17.06904
705.907	20.90128
706.094	17.44539
706.282	24.23092
706.469	17.40101
706.656	18.2367
706.844	16.73628
707.031	21.92671
707.218	19.76101
707.406	23.73812
707.593	21.46499
707.78	21.08765
707.968	19.09954
708.155	16.21861
708.342	21.47814
708.529	21.48645
708.716	20.92167
708.904	25.04089
709.091	21.43123
709.278	16.15656
709.465	25.90112
709.652	24.93852
709.839	24.03019
710.026	19.4708
710.213	13.23534
710.4	19.17947
710.587	21.26113
710.774	21.78379
710.961	22.28964
711.148	19.41147
711.335	22.38921
711.522	18.20925
711.709	20.46812
711.896	26.79187
712.083	22.64633
712.27	16.18218
712.457	20.00004
712.644	13.98812
712.831	26.78231
713.017	20.53041
713.204	21.41537
713.391	16.33232
713.578	22.67098
713.765	24.01769
713.951	20.16682
714.138	30.24001
714.325	19.80717
714.512	17.68438
714.698	14.95297
714.885	23.01189
715.072	18.30951
715.258	17.56021
715.445	15.02623
715.631	21.74499
715.818	8.10987
716.005	14.81418
716.191	19.24701
716.378	15.01389
716.564	20.02964
716.751	13.15819
716.937	15.11706
717.124	21.16987
717.31	13.68354
717.497	25.19372
717.683	13.92027
717.869	25.78835
718.056	15.26087
718.242	19.50391
718.429	16.51872
718.615	12.84347
718.801	16.83872
718.988	21.4087
719.174	19.79321
719.36	15.56346
719.547	23.07562
719.733	19.28936
719.919	19.30806
720.105	19.8061
720.291	17.30547
720.478	18.59065
720.664	16.78997
720.85	15.90277
721.036	29.34436
721.222	25.12564
721.408	17.41142
721.595	25.88829
721.781	24.92494
721.967	23.66925
722.153	25.02212
722.339	20.10151
722.525	20.25277
722.711	13.48066
722.897	12.32553
723.083	17.39233
723.269	23.22946
723.455	31.81082
723.641	36.77782
723.827	19.15155
724.012	20.20593
724.198	19.00578
724.384	24.43335
724.57	19.91858
724.756	12.39139
724.942	10.20098
725.127	24.05528
725.313	24.38648
725.499	24.29772
725.685	28.43652
725.87	20.55256
726.056	14.42134
726.242	25.61858
726.428	12.49444
726.613	23.26116
726.799	16.39804
726.985	13.88533
727.17	11.70504
727.356	28.86731
727.541	15.73866
727.727	18.76633
727.913	22.27615
728.098	16.79809
728.284	22.47196
728.469	13.46634
728.655	14.81614
728.84	24.02977
729.026	22.10903
729.211	22.93198
729.397	20.77946
729.582	23.16266
729.767	18.68735
729.953	21.38807
730.138	25.39578
730.323	9.10092
730.509	13.72258
730.694	27.18233
730.879	21.95836
731.065	20.92727
731.25	30.45359
731.435	22.58287
731.621	13.00833
731.806	17.09854
731.991	20.60153
732.176	13.20189
732.361	26.82225
732.547	20.14794
732.732	12.64354
732.917	30.28224
733.102	14.11473
733.287	17.0686
733.472	19.24916
733.657	19.41583
733.842	13.44333
734.027	17.70635
734.212	18.05431
734.397	15.5635
734.582	19.77148
734.767	24.14304
734.952	26.96166
735.137	8.51781
735.322	26.64657
735.507	22.13769
735.692	20.3148
735.877	31.0337
736.062	29.38254
736.247	21.43347
736.431	19.92279
736.616	25.12066
736.801	22.00778
736.986	20.15995
737.171	15.56147
737.355	14.69213
737.54	27.50169
737.725	21.05116
737.909	35.17293
738.094	18.00933
738.279	24.30275
738.463	19.89717
738.648	23.88484
738.833	22.66781
739.017	32.55418
739.202	19.25325
739.386	20.24847
739.571	17.32115
739.756	25.57409
739.94	20.16916
740.125	23.86028
740.309	17.62199
740.494	24.56422
740.678	22.0638
740.863	23.56992
741.047	22.17991
741.231	29.26325
741.416	17.54936
741.6	29.55039
741.785	16.82662
741.969	25.86935
742.153	28.84844
742.338	9.94153
742.522	20.48563
742.706	26.0934
742.89	15.24793
743.075	21.25011
743.259	27.6978
743.443	28.79389
743.627	28.30599
743.812	33.96887
743.996	13.67001
744.18	19.19207
744.364	19.39637
744.548	35.48253
744.732	20.08987
744.916	26.4779
745.1	25.08984
745.285	19.70789
745.469	25.11206
745.653	31.29416
745.837	15.35106
746.021	36.60527
746.205	27.97213
746.389	22.62151
746.573	20.50444
746.757	30.46626
746.94	19.04419
747.124	28.39254
747.308	14.69956
747.492	28.927
747.676	16.99383
747.86	37.24907
748.044	19.5249
748.227	12.67056
748.411	46.22738
748.595	23.40487
748.779	18.43967
748.963	25.18041
749.146	22.67024
749.33	18.74578
749.514	17.06809
749.697	29.08874
749.881	17.87368
750.065	16.18952
750.248	23.88657
750.432	38.17515
750.616	22.73655
750.799	16.19511
750.983	38.56166
751.166	38.48882
751.35	13.86384
751.533	28.70399
751.717	34.12283
751.9	32.35933
752.084	20.47485
752.267	17.72323
752.451	17.78271
752.634	23.48623
752.818	26.5789
753.001	28.28927
753.184	30.97364
753.368	25.0033
753.551	3.6346
753.734	18.04577
753.918	38.6284
754.101	18.56976
754.284	27.71061
754.467	19.60716
754.651	19.25969
754.834	16.46761
755.017	30.7901
755.2	30.06279
755.384	15.86666
755.567	27.68047
755.75	29.49798
755.933	20.87239
756.116	28.32879
756.299	18.84893
756.482	17.38993
756.665	27.8847
756.848	23.07018
757.032	24.93535
757.215	14.30758
757.398	17.46827
757.581	17.83229
757.764	41.37631
757.947	23.76408
758.129	29.01844
758.312	7.24356
758.495	22.07097
758.678	22.70635
758.861	20.84088
759.044	36.84934
759.227	16.92248
759.41	16.21265
759.592	28.2553
759.775	22.02557
759.958	30.24132
760.141	14.031
760.324	39.49236
760.506	32.60054
760.689	28.32113
760.872	38.69226
761.054	26.49627
761.237	22.08436
761.42	25.0088
761.602	29.51846
761.785	25.18264
761.968	31.01559
762.15	35.07931
762.333	22.68866
762.515	26.94803
762.698	20.87797
762.88	28.94183
763.063	26.56532
763.245	31.29968
763.428	18.08861
763.61	19.88718
763.793	15.06925
763.975	25.55325
764.158	20.6731
764.34	19.28219
764.522	16.61393
764.705	20.58242
764.887	32.68765
765.069	13.38368
765.252	25.83259
765.434	27.39746
765.616	23.67985
765.799	17.31884
765.981	27.85534
766.163	17.52677
766.345	32.7046
766.528	18.65703
766.71	10.33338
766.892	24.48802
767.074	32.60734
767.256	21.02229
767.438	36.70623
767.62	25.45956
767.802	41.50931
767.985	28.68615
768.167	37.95348
768.349	20.21695
768.531	28.34971
768.713	26.20544
768.895	30.75374
769.077	26.80212
769.259	44.68121
769.441	63.59762
769.623	29.94855
769.804	35.9102
769.986	34.99851
770.168	42.03029
770.35	53.56174
770.532	38.62015
770.714	43.88108
770.896	42.28676
771.077	16.93162
771.259	43.77066
771.441	39.12524
771.623	46.9788
771.804	58.46286
771.986	18.00794
772.168	29.99567
772.35	43.63655
772.531	64.7612
772.713	37.46956
772.894	50.60942
773.076	35.04864
773.258	31.43649
773.439	51.13003
773.621	57.00193
773.802	23.30701
773.984	31.20606
774.166	40.32637
774.347	54.82311
774.529	48.18144
774.71	15.27896
774.891	33.20826
775.073	31.54872
775.254	50.58474
775.436	29.7483
775.617	63.6071
775.799	30.92853
775.98	50.19667
776.161	56.87599
776.343	58.27608
776.524	35.93887
776.705	36.2862
776.886	16.07981
777.068	40.55386
777.249	87.60518
777.43	61.31086
777.611	24.57643
777.793	31.93445
777.974	60.80413
778.155	31.27484
778.336	25.91084
778.517	67.13569
778.698	26.64702
778.879	16.47974
779.061	9.2893
779.242	42.92141
779.423	42.18179
779.604	30.64615
779.785	33.32239
779.966	39.80964
780.147	51.04752
780.328	50.40385
780.509	70.96337
780.69	50.23954
780.871	29.26355
781.051	20.82404
781.232	38.5525
781.413	38.99934
781.594	32.83331
781.775	30.63057
781.956	29.30444
782.137	15.25224
782.317	29.01113
782.498	39.31652
782.679	36.06188
782.86	40.30914
783.04	28.43653
783.221	40.04282
783.402	63.03683
783.583	40.01967
783.763	47.45755
783.944	31.47909
784.124	20.36498
784.305	60.45221
784.486	45.54901
784.666	37.0413
784.847	18.32301
785.027	82.18277
785.208	29.95443
785.388	29.38802
785.569	28.76661
785.749	34.35257
785.93	29.91012
786.11	20.46057
786.291	43.33547
786.471	39.53941
786.652	48.94474
786.832	36.61295
787.012	38.56675
787.193	23.04604
787.373	38.14799
787.553	31.44023
787.734	40.03686
787.914	32.51459
788.094	51.31784
788.275	39.55819
788.455	32.58458
788.635	22.56373
788.815	40.3009
788.995	25.59369
789.176	20.25458
789.356	27.65724
789.536	33.50798
789.716	40.50474
789.896	28.70268
790.076	30.1012
790.256	40.82961
790.436	13.95606
790.616	24.98299
790.796	39.18483
790.976	31.22867
791.156	27.08458
791.336	44.56262
791.516	40.35935
791.696	32.78243
791.876	20.04977
792.056	38.5442
792.236	50.2771
792.416	46.10546
792.596	42.28889
792.776	42.21718
792.956	45.96731
793.135	60.41913
793.315	24.36952
793.495	50.19642
793.675	47.31822
793.854	46.52397
794.034	49.08193
794.214	22.81643
794.394	47.62568
794.573	52.89332
794.753	39.61876
794.933	25.34157
795.112	41.14768
795.292	48.23315
795.472	59.4705
795.651	21.74316
795.831	36.05333
796.01	32.89917
796.19	33.1553
796.369	35.80946
796.549	43.63159
796.728	34.54975
796.908	19.883
797.087	23.28483
797.267	33.12889
797.446	24.1
797.626	43.05576
797.805	42.2654
797.984	28.28867
798.164	46.11036
798.343	26.89951
798.522	38.91138
798.702	38.74188
798.881	23.72047
799.06	33.98709
799.239	17.06321
799.419	27.24932
799.598	59.611
799.777	42.30711
799.956	51.38882
800.136	34.12367
800.315	26.60252
800.494	41.78752
800.673	50.20852
800.852	46.18168
801.031	51.67279
801.21	44.16774
801.389	30.67898
801.568	38.45298
801.747	63.5798
801.926	35.95583
802.105	57.09218
802.284	30.23305
802.463	58.97027
802.642	40.731
802.821	40.09582
803	55.87632
803.179	49.18545
803.358	50.09652
803.537	30.13006
803.716	36.36418
803.895	29.03914
804.073	34.47331
804.252	27.99339
804.431	43.50307
804.61	35.5153
804.789	47.88262
804.967	30.43487
805.146	29.8111
805.325	67.63127
805.503	42.87516
805.682	21.60996
805.861	83.37617
806.039	54.77343
806.218	30.71722
806.397	39.17818
806.575	35.62079
806.754	41.76435
806.932	24.98107
807.111	51.02194
807.289	50.1956
807.468	38.15288
807.646	50.33083
807.825	44.69541
808.003	40.7182
808.182	50.31856
808.36	38.77986
808.539	27.60072
808.717	58.14117
808.895	28.78728
809.074	42.48826
809.252	36.12005
809.43	46.65843
809.609	54.55641
809.787	58.91288
809.965	35.44123
810.144	37.9148
810.322	35.13252
810.5	43.50684
810.678	34.12915
810.856	69.56201
811.035	54.58465
811.213	48.38673
811.391	57.75218
811.569	41.84958
811.747	87.5739
811.925	54.12171
812.103	29.70438
812.281	37.05826
812.459	65.43778
812.637	62.83474
812.816	50.35574
812.994	70.72227
813.171	58.26966
813.349	48.62474
813.527	53.99589
813.705	59.96534
813.883	74.90844
814.061	53.0051
814.239	66.26212
814.417	74.60229
814.595	51.33708
814.773	47.62018
814.95	41.13204
815.128	48.11342
815.306	40.20683
815.484	37.81898
815.662	28.60943
815.839	25.95081
816.017	33.27464
816.195	56.37676
816.372	34.5008
816.55	51.35706
816.728	64.04485
816.905	37.4158
817.083	63.97482
817.261	42.06107
817.438	87.65201
817.616	67.14259
817.793	33.17682
817.971	50.30575
818.148	49.43465
818.326	59.14042
818.503	45.66036
818.681	66.02133
818.858	37.29872
819.036	40.21627
819.213	45.30813
819.391	33.22468
819.568	32.77969
819.745	29.40961
819.923	53.23431
820.1	37.80161
820.277	29.62936
820.455	36.46579
820.632	39.10272
820.809	43.00415
820.986	27.19622
821.164	21.47163
821.341	18.61991
821.518	30.10562
821.695	20.80595
821.872	18.32867
822.05	15.56873
822.227	11.92036
822.404	12.97731
822.581	15.38612
822.758	12.53102
822.935	12.51042
823.112	14.50692
823.289	11.71598
823.466	14.70615
823.643	13.7603
823.82	17.0624
823.997	14.96952
824.174	17.56471
824.351	24.49888
824.528	23.04218
824.705	20.33701
824.882	23.14287
825.059	30.82536
825.236	21.74617
825.412	22.91457
825.589	28.13104
825.766	40.78904
825.943	25.05839
826.12	30.30656
826.296	21.04356
826.473	27.22187
826.65	27.07253
826.827	32.29702
827.003	20.67434
827.18	23.84498
827.357	26.62303
827.533	22.12261
827.71	12.03205
827.887	19.59687
828.063	22.52919
828.24	18.80532
828.416	25.70195
828.593	21.05378
828.769	30.25639
828.946	30.88667
829.122	32.47289
829.299	32.23866
829.475	19.65302
829.652	30.82978
829.828	52.81309
830.005	33.56057
830.181	45.92828
830.357	33.5615
830.534	48.00525
830.71	35.82351
830.886	46.82365
831.063	44.55866
831.239	56.39623
831.415	25.90207
831.592	59.88293
831.768	37.15034
831.944	29.79411
832.12	65.94962
832.296	61.40562
832.473	50.2831
832.649	36.18343
832.825	51.3006
833.001	29.40441
833.177	43.67167
833.353	40.896
833.529	23.28317
833.705	36.68289
833.881	22.79286
834.058	22.51365
834.234	24.10915
834.41	24.01143
834.586	18.37199
834.761	22.745
834.937	25.27298
835.113	26.61218
835.289	22.62613
835.465	26.97578
835.641	24.62191
835.817	26.76418
835.993	47.25398
836.169	24.89843
836.344	38.04052
836.52	41.48977
836.696	38.88938
836.872	30.56753
837.048	89.75395
837.223	34.77709
837.399	68.20823
837.575	53.48892
837.75	47.39829
837.926	70.58473
838.102	104.63859
838.277	83.95425
838.453	112.05001
838.628	115.53899
838.804	44.99649
838.98	97.93754
839.155	50.61613
839.331	70.4261
839.506	48.66799
839.682	50.3607
839.857	71.22373
840.033	82.95948
840.208	37.36589
840.384	20.48139
840.559	38.1876
840.734	60.68023
840.91	77.59815
841.085	49.05396
841.26	46.46912
841.436	41.96659
841.611	42.45291
841.786	63.37145
841.962	84.73483
842.137	53.12969
842.312	34.91559
842.487	45.66043
842.663	39.74592
842.838	47.51359
843.013	154.34554
843.188	71.10049
843.363	78.01674
843.538	127.10694
843.714	131.04231
843.889	130.84312
844.064	133.20088
844.239	114.77593
844.414	133.33337
844.589	84.58197
844.764	161.06408
844.939	162.35768
845.114	176.05794
845.289	170.09668
845.464	227.12526
845.639	153.64274
845.814	73.97978
845.989	86.57056
846.163	113.56217
846.338	123.77048
846.513	168.54503
846.688	105.86455
846.863	114.6463
847.038	98.16563
847.212	116.82427
847.387	115.39174
847.562	122.9863
847.737	151.58216
847.911	54.90334
848.086	68.88649
848.261	230.66921
848.435	107.15424
848.61	162.63398
848.785	73.63113
848.959	161.1229
849.134	217.00672
849.308	230.30938
849.483	121.40333
849.658	188.05633
849.832	104.30543
850.007	82.40472
850.181	255.46819
850.356	95.51882
850.53	242.09377
850.705	74.63627
850.879	41.99776
851.053	107.91067
851.228	103.76038
851.402	131.00714
851.577	172.87066
851.751	191.88817
851.925	129.92648
852.099	57.54276
852.274	84.87954
852.448	113.34169
852.622	132.16045
852.797	122.35159
852.971	111.40275
853.145	121.29801
853.319	352.1803
853.493	178.89533
853.668	98.66703
853.842	227.09172
854.016	183.0378
854.19	213.09391
854.364	125.5694
854.538	142.39038
854.712	180.40119
854.886	118.29582
855.06	105.27927
855.234	49.09958
855.408	200.80004
855.582	164.82977
855.756	169.77274
855.93	218.75114
856.104	143.45751
856.278	175.63693
856.452	119.11271
856.626	171.65291
856.8	262.37732
856.973	154.99972
857.147	145.78846
857.321	149.42084
857.495	178.38112
857.669	118.69276
857.842	101.03665
858.016	178.90726
858.19	88.28898
858.364	289.89427
858.537	107.61444
858.711	128.49654
858.885	111.75527
859.058	104.07855
859.232	49.48199
859.405	61.66522
859.579	169.61999
859.753	143.54117
859.926	94.27796
860.1	71.81414
860.273	129.48738
860.447	205.43662
860.62	111.68376
860.794	252.58167
860.967	137.81309
861.141	189.57996
861.314	268.59042
861.487	156.73026
861.661	210.90688
861.834	212.74562
862.008	186.05109
862.181	127.52844
862.354	139.06507
862.528	149.20786
862.701	107.15612
862.874	72.22634
863.047	114.72093
863.221	102.79974
863.394	53.88134
863.567	209.05944
863.74	46.56938
863.913	171.39003
864.087	147.20001
864.26	177.18546
864.433	116.99204
864.606	232.94359
864.779	139.25457
864.952	56.18654
865.125	108.93963
865.298	122.4913
865.471	129.0201
865.644	259.99727
865.817	209.77093
865.99	175.11848
866.163	197.6481
866.336	106.54093
866.509	125.4017
866.682	110.26446
866.855	191.41834
867.028	81.09303
867.2	156.88672
867.373	51.01033
867.546	142.56466
867.719	269.67977
867.892	160.33529
868.064	87.97123
868.237	152.55308
868.41	126.87339
868.583	83.86894
868.755	78.68208
868.928	130.08136
869.101	272.27544
869.273	196.58677
869.446	165.17768
869.619	193.31708
869.791	124.51351
869.964	188.90671
870.136	180.22719
870.309	138.81447
870.481	142.28855
870.654	69.12551
870.826	145.64555
870.999	111.4572
871.171	182.99524
871.344	111.09698
871.516	129.3331
871.689	95.56451
871.861	142.52123
872.033	97.14324
872.206	121.26691
872.378	181.16356
872.55	120.90485
872.723	80.05006
872.895	118.17688
873.067	187.96079
873.24	207.417
873.412	109.7486
873.584	118.60888
873.756	113.36693
873.928	147.896
874.101	157.48459
874.273	166.19835
874.445	55.12438
874.617	75.84941
874.789	141.46435
874.961	115.43465
875.133	166.68254
875.305	135.15328
875.477	87.00499
875.649	68.69698
875.821	89.32977
875.993	226.55384
876.165	87.2232
876.337	149.29071
876.509	118.88122
876.681	152.3403
876.853	144.74638
877.025	144.44839
877.197	94.93814
877.369	86.45543
877.541	181.46981
877.712	49.64314
877.884	84.29264
878.056	169.53879
878.228	86.59287
878.4	157.16443
878.571	89.57738
878.743	60.42711
878.915	145.96799
879.086	83.85323
879.258	106.48276
879.43	94.51661
879.601	84.16105
879.773	91.0835
879.945	18.64779
880.116	38.36657
880.288	24.13074
880.459	25.96471
880.631	19.21753
880.802	24.03248
880.974	22.27826
881.145	15.305
881.317	20.66801
881.488	15.10995
881.66	16.98666
881.831	15.47038
882.002	22.81309
882.174	15.5801
882.345	21.19682
882.517	10.86994
882.688	24.9843
882.859	21.07204
883.03	34.07238
883.202	32.56251
883.373	28.836
883.544	27.57718
883.715	50.45146
883.887	41.0005
884.058	35.80432
884.229	51.18588
884.4	53.81503
884.571	57.94698
884.742	51.05698
884.914	55.25943
885.085	80.34982
885.256	101.26068
885.427	82.80211
885.598	99.43283
885.769	103.90708
885.94	99.08187
886.111	65.77083
886.282	119.93203
886.453	95.93736
886.624	70.6827
886.795	116.63235
886.966	97.55063
887.136	129.97263
887.307	83.65856
887.478	162.9931
887.649	139.39406
887.82	146.08667
887.991	117.60601
888.161	156.59888
888.332	151.27459
888.503	75.60635
888.674	198.15198
888.844	221.93896
889.015	172.9314
889.186	79.75315
889.356	206.53211
889.527	74.27016
889.698	353.82795
889.868	117.60535
890.039	140.74752
890.209	130.90588
890.38	173.81815
890.551	146.54818
890.721	218.96694
890.892	175.96309
891.062	119.63419
891.233	156.55766
891.403	118.84793
891.574	90.50088
891.744	111.23355
891.914	163.55163
892.085	133.56748
892.255	40.17214
892.425	209.71667
892.596	163.4521
892.766	158.36535
892.936	212.45761
893.107	174.75008
893.277	96.93281
893.447	69.23659
893.618	56.37638
893.788	117.00778
893.958	62.96191
894.128	60.89432
894.298	70.44363
894.468	100.27175
894.639	42.60026
894.809	27.86817
894.979	51.26794
895.149	55.07865
895.319	48.79644
895.489	67.09825
895.659	82.60663
895.829	55.34881
895.999	56.50577
896.169	42.24734
896.339	50.15736
896.509	113.45067
896.679	127.29648
896.849	117.59213
897.019	176.41518
897.189	129.53019
897.358	120.79014
897.528	184.10325
897.698	60.69744
897.868	156.36937
898.038	274.86096
898.208	255.23059
898.377	82.19062
898.547	256.67314
898.717	420.71665
898.886	170.81374
899.056	262.82446
899.226	396.92875
899.395	226.72367
899.565	297.33623
899.735	200.56407
899.904	332.51129
900.074	279.53476
900.244	128.91708
900.413	507.74043
900.583	114.20595
900.752	188.85784
900.922	313.26814
901.091	37.50428
901.261	269.83672
901.43	253.01454
901.599	243.0114
901.769	557.92516
901.938	295.79787
902.108	273.21397
902.277	370.28723
902.446	95.19179
902.616	117.27782
902.785	164.18567
902.954	285.29729
903.124	189.79641
903.293	145.34559
903.462	83.22777
903.631	114.78214
903.801	82.72746
903.97	40.82386
904.139	76.50905
904.308	55.59016
904.477	43.26939
904.646	26.10522
904.816	43.18718
904.985	64.7601
905.154	100.83765
