Data from WindowProjectSample_Transmission__61__00061__07192221625658158.txt Node

Date: Mon May 05 18:26:49 EDT 2025
User: jessi
Spectrometer: SR400872
Trigger mode: 0
Integration Time (sec): 5.000010E-1
Scans to average: 20
Electric dark correction enabled: true
Nonlinearity correction enabled: true
Boxcar width: 0
XAxis mode: Wavelengths
Number of Pixels in Spectrum: 3648
>>>>>Begin Spectral Data<<<<<
184.909	21180.50315
185.132	-4989.74734
185.355	-2988.62691
185.578	-17950.21894
185.801	1908.50175
186.024	9967.38286
186.247	-1765.70857
186.47	1069.81542
186.693	288.31704
186.916	310.58657
187.139	-3642.47861
187.362	3713.5755
187.585	4324.5014
187.808	3387.41502
188.031	85.10147
188.254	-54492.21479
188.476	-786.48036
188.699	6173.67951
188.922	689.31037
189.145	-15424.77563
189.368	-653.48149
189.591	-1476.02385
189.813	3291.24097
190.036	-50535.33076
190.259	-907.44892
190.482	-4770.80628
190.705	7203.94035
190.927	-2477.86732
191.15	13421.8605
191.373	3291.04378
191.595	-8869.18471
191.818	-4137.77401
192.041	-6605.1504
192.263	-3323.02271
192.486	-824.367
192.709	-3954.4882
192.931	7965.0065
193.154	-27539.13074
193.377	-2928.60846
193.599	-2582.50343
193.822	-9781.43149
194.044	-2053.43019
194.267	1189.98283
194.489	146.44161
194.712	-41044.99112
194.934	-31541.2207
195.157	1171.46605
195.379	1418.43321
195.602	-7160.27702
195.824	-1338.98878
196.047	-9424.83971
196.269	2747.27121
196.492	-6589.89938
196.714	30418.87376
196.936	-8720.5724
197.159	-1249.97644
197.381	1256.09712
197.604	518.10492
197.826	11696.94699
198.048	-11336.31617
198.271	-2766.44365
198.493	7671.59868
198.715	2340.0183
198.938	-503.516
199.16	6842.94868
199.382	-100133.46716
199.604	2588.01992
199.827	-1084.12405
200.049	-3212.60453
200.271	14359.37436
200.493	1263.62544
200.715	-37015.67693
200.938	-6099.47882
201.16	-4265.35544
201.382	20998.23168
201.604	2317.47055
201.826	2240.80286
202.048	-1828.90968
202.27	-1941.30748
202.492	-37852.97115
202.715	2885.56809
202.937	-4658.06489
203.159	-6126.9253
203.381	1462.07322
203.603	6757.90556
203.825	6718.43911
204.047	2147.04481
204.269	-2742.77916
204.491	2128.6302
204.713	5858.5346
204.935	-468818.51083
205.156	1202.84981
205.378	-2969.68912
205.6	1563.46964
205.822	154030.86603
206.044	-1178.70492
206.266	1536.39428
206.488	4488.86588
206.71	-5438.71098
206.932	1147.99839
207.153	11920.77812
207.375	-6868.80713
207.597	-37480.67091
207.819	-2832.02422
208.041	2493.24131
208.262	491.11388
208.484	689.34271
208.706	-837.79213
208.927	-916.12026
209.149	549.88992
209.371	-2923.4945
209.593	-386.38524
209.814	-796.80209
210.036	614.15335
210.258	-626.26006
210.479	1947.74822
210.701	1748.36055
210.922	3326.02606
211.144	-3739.19967
211.366	2163.07793
211.587	7914.1045
211.809	-8357.38979
212.03	2440.46052
212.252	528.85507
212.473	2066.62485
212.695	-6733.27161
212.916	2984.73653
213.138	-729.2723
213.359	3669.41206
213.581	5273.3632
213.802	-807.015
214.024	1147.22711
214.245	2043.0514
214.466	3595.42818
214.688	-3121.65047
214.909	-1191.82409
215.131	-1740.14804
215.352	-2910.90767
215.573	14810.5584
215.795	5005.72305
216.016	5510.28109
216.237	887.11332
216.459	3705.64093
216.68	1782.77451
216.901	4855.0143
217.122	-3163.191
217.344	-11471.46869
217.565	3578.95529
217.786	8934.0486
218.007	17030.71297
218.228	-786.10278
218.45	5877.84266
218.671	814.23534
218.892	37047.18366
219.113	1635.60799
219.334	-139.17353
219.555	9092.18455
219.776	3111.05358
219.997	22301.55483
220.219	2620.23358
220.44	-11207.41267
220.661	544.41062
220.882	1531.63513
221.103	-1049.9791
221.324	2301.75506
221.545	2192.48011
221.766	-9109.77641
221.987	957.14683
222.208	1692.33746
222.429	4328.80877
222.65	232.87154
222.87	19545.9774
223.091	744.11662
223.312	617.0369
223.533	1266.50081
223.754	1523.84364
223.975	1414.35429
224.196	2089.87049
224.417	1297.20893
224.637	681.14422
224.858	85.7353
225.079	1095.89175
225.3	632.11748
225.521	3740.17907
225.741	470.07904
225.962	491.84848
226.183	146.61755
226.404	660.06847
226.624	421.55196
226.845	667.64338
227.066	417.12048
227.286	260.86104
227.507	128.09584
227.728	112.21168
227.948	234.57138
228.169	73.13124
228.389	83.66839
228.61	49.12992
228.831	64.70184
229.051	3.84315
229.272	39.64526
229.492	56.73253
229.713	13.65695
229.933	37.29468
230.154	33.16539
230.374	54.73666
230.595	38.42681
230.815	24.74851
231.036	38.65242
231.256	-6.69648
231.477	67.87528
231.697	40.41583
231.917	42.16323
232.138	57.00177
232.358	112.35872
232.579	105.98265
232.799	20.45695
233.019	100.93344
233.24	113.78238
233.46	36.38104
233.68	65.49593
233.901	42.16414
234.121	27.41799
234.341	11.92339
234.561	-1.50275
234.782	20.86563
235.002	68.22097
235.222	-3.59725
235.442	62.45598
235.662	33.38819
235.883	61.7084
236.103	50.85134
236.323	37.75667
236.543	29.91918
236.763	39.57743
236.983	44.56018
237.203	40.64669
237.423	62.43111
237.643	88.71461
237.864	75.25092
238.084	20.81153
238.304	26.04497
238.524	44.2248
238.744	39.18435
238.964	73.71577
239.184	61.289
239.404	65.00624
239.624	34.91972
239.843	60.51673
240.063	35.61284
240.283	19.82137
240.503	25.34291
240.723	25.66251
240.943	14.17593
241.163	19.86793
241.383	12.51323
241.603	7.52551
241.822	9.76283
242.042	6.72135
242.262	8.08179
242.482	9.45832
242.702	10.86712
242.921	2.63706
243.141	7.15496
243.361	5.71426
243.581	9.20531
243.8	7.73588
244.02	5.35271
244.24	9.37531
244.459	9.9006
244.679	17.67872
244.899	11.48311
245.118	13.19577
245.338	11.58191
245.558	13.63804
245.777	8.33842
245.997	10.53801
246.216	10.5234
246.436	6.61826
246.655	4.83057
246.875	3.17521
247.094	6.39343
247.314	2.14303
247.533	3.58531
247.753	4.37323
247.972	3.44841
248.192	1.22027
248.411	1.81309
248.631	3.56094
248.85	4.60383
249.07	3.82393
249.289	5.96893
249.508	5.02288
249.728	7.74526
249.947	6.76623
250.166	8.67181
250.386	4.29239
250.605	7.01894
250.824	10.4746
251.044	7.67407
251.263	28.67236
251.482	14.38172
251.701	11.60902
251.921	0.02705
252.14	3.47629
252.359	3.71358
252.578	10.06552
252.798	3.58201
253.017	8.96551
253.236	4.25885
253.455	5.96709
253.674	9.84654
253.893	5.08849
254.112	7.96666
254.331	11.32677
254.551	8.3468
254.77	4.08302
254.989	13.77946
255.208	9.8349
255.427	15.04327
255.646	11.31168
255.865	21.29696
256.084	8.6099
256.303	11.32778
256.522	13.922
256.741	3.09245
256.96	2.98136
257.179	8.1847
257.397	11.33153
257.616	5.89089
257.835	6.60307
258.054	15.13579
258.273	10.71599
258.492	10.9601
258.711	6.30168
258.93	3.27106
259.148	4.80968
259.367	4.56834
259.586	5.70846
259.805	2.32407
260.023	5.21833
260.242	3.88632
260.461	2.8318
260.68	1.41267
260.898	4.53062
261.117	1.3327
261.336	1.01134
261.554	3.52928
261.773	3.38779
261.992	0.79076
262.21	3.34333
262.429	3.49549
262.648	7.3341
262.866	8.5467
263.085	5.65333
263.303	4.70452
263.522	8.91735
263.74	8.70991
263.959	15.42554
264.178	7.05495
264.396	6.63805
264.615	4.68125
264.833	10.52239
265.051	8.34388
265.27	10.45626
265.488	10.74119
265.707	6.25218
265.925	10.93971
266.144	4.86907
266.362	6.03836
266.58	5.4899
266.799	5.09596
267.017	5.99746
267.235	5.63338
267.454	3.45254
267.672	1.86195
267.89	4.26169
268.109	4.38773
268.327	4.20213
268.545	1.06563
268.763	3.98976
268.982	1.50532
269.2	4.02001
269.418	3.119
269.636	2.0334
269.854	4.50944
270.073	3.28087
270.291	2.04465
270.509	2.08616
270.727	4.59774
270.945	7.197
271.163	7.11073
271.381	1.60517
271.599	3.37664
271.817	5.61319
272.036	1.82508
272.254	3.0506
272.472	2.3693
272.69	2.65569
272.908	2.43243
273.126	4.48011
273.344	5.29051
273.562	1.83564
273.779	2.74984
273.997	3.60915
274.215	4.21665
274.433	2.75378
274.651	4.38836
274.869	4.90857
275.087	2.86647
275.305	3.8859
275.523	2.66226
275.74	3.12515
275.958	5.46366
276.176	8.19383
276.394	2.68988
276.612	3.21825
276.829	3.21373
277.047	2.46884
277.265	3.05286
277.483	3.52856
277.7	4.26555
277.918	3.45836
278.136	6.24953
278.353	2.97731
278.571	1.82122
278.789	4.34058
279.006	0.98891
279.224	3.11834
279.442	5.21174
279.659	3.63623
279.877	2.37923
280.094	5.92834
280.312	1.32221
280.529	3.51323
280.747	1.00338
280.964	2.60696
281.182	6.08953
281.399	2.61979
281.617	3.94766
281.834	2.66099
282.052	1.96021
282.269	3.22835
282.487	2.63087
282.704	2.11174
282.921	2.31334
283.139	3.28962
283.356	4.00653
283.574	4.01567
283.791	1.94046
284.008	5.7277
284.226	3.01688
284.443	3.11525
284.66	4.25665
284.877	3.43223
285.095	2.15139
285.312	1.70008
285.529	1.10532
285.746	0.92386
285.964	2.09402
286.181	1.31316
286.398	1.92643
286.615	2.72348
286.832	2.6622
287.05	0.67568
287.267	1.7631
287.484	1.75084
287.701	2.61349
287.918	2.5766
288.135	2.65311
288.352	1.27234
288.569	1.38184
288.786	2.55284
289.003	2.11178
289.22	3.04483
289.437	1.71251
289.654	2.84425
289.871	3.00717
290.088	2.99223
290.305	2.33911
290.522	1.80003
290.739	2.10348
290.956	3.12273
291.173	3.55427
291.39	3.40322
291.607	2.46684
291.824	1.79972
292.04	1.31558
292.257	2.92578
292.474	3.25076
292.691	1.98429
292.908	0.94668
293.125	1.84758
293.341	1.10629
293.558	4.99835
293.775	2.03057
293.992	2.04798
294.208	0.99867
294.425	1.44196
294.642	1.92002
294.858	2.72302
295.075	0.6997
295.292	1.87968
295.508	2.40957
295.725	4.20138
295.942	1.88825
296.158	1.44587
296.375	2.27762
296.591	1.79249
296.808	1.95435
297.024	2.24988
297.241	2.57119
297.458	2.73434
297.674	0.51697
297.891	2.19114
298.107	1.9289
298.323	1.50436
298.54	3.63325
298.756	1.87253
298.973	1.20305
299.189	3.68992
299.406	1.82581
299.622	3.46226
299.838	3.39216
300.055	3.33649
300.271	1.38684
300.487	1.92291
300.704	2.14622
300.92	1.601
301.136	5.15633
301.353	3.43152
301.569	2.83666
301.785	3.18896
302.001	3.63908
302.218	3.22165
302.434	3.47682
302.65	1.87726
302.866	2.64561
303.083	5.14767
303.299	5.14432
303.515	3.25215
303.731	3.51632
303.947	1.9926
304.163	2.71211
304.379	3.38832
304.595	3.61619
304.812	2.60025
305.028	2.61802
305.244	3.07634
305.46	3.88787
305.676	4.11642
305.892	4.64408
306.108	3.89542
306.324	3.06827
306.54	5.15465
306.756	4.0008
306.972	3.95007
307.187	3.59234
307.403	4.68457
307.619	3.09609
307.835	4.60414
308.051	4.97931
308.267	2.73861
308.483	4.85718
308.699	4.14881
308.914	3.64559
309.13	3.65846
309.346	2.63209
309.562	2.83336
309.778	2.64362
309.993	4.26906
310.209	4.00549
310.425	2.90153
310.641	3.84707
310.856	3.15583
311.072	2.95169
311.288	3.76076
311.503	4.21476
311.719	2.52875
311.935	2.54294
312.15	4.53275
312.366	4.17045
312.581	4.39461
312.797	4.12669
313.013	4.78386
313.228	3.51951
313.444	3.88774
313.659	3.49026
313.875	4.56972
314.09	3.99693
314.306	5.62939
314.521	4.92339
314.737	4.89235
314.952	4.13169
315.168	4.34004
315.383	4.65606
315.599	3.95564
315.814	3.92035
316.029	4.95484
316.245	3.35328
316.46	2.76882
316.675	5.26799
316.891	5.91913
317.106	7.02976
317.321	4.58138
317.537	5.13479
317.752	5.18997
317.967	5.19559
318.183	3.58758
318.398	4.07032
318.613	5.21508
318.828	5.729
319.043	5.10475
319.259	4.33155
319.474	4.80407
319.689	5.7778
319.904	3.07152
320.119	5.56084
320.334	4.83125
320.549	4.49907
320.765	5.68156
320.98	5.00538
321.195	5.05582
321.41	4.82185
321.625	5.47887
321.84	6.39229
322.055	6.30972
322.27	4.11958
322.485	3.81948
322.7	5.27248
322.915	5.70758
323.13	4.39339
323.345	6.46192
323.56	5.8756
323.775	5.66918
323.989	5.38734
324.204	5.33674
324.419	6.16135
324.634	4.05609
324.849	4.9501
325.064	8.42328
325.279	6.13279
325.493	5.78072
325.708	5.95048
325.923	4.62297
326.138	5.137
326.352	6.82762
326.567	6.20215
326.782	4.96819
326.997	5.08222
327.211	5.93894
327.426	5.66804
327.641	5.19749
327.855	4.25838
328.07	5.84534
328.285	7.24024
328.499	5.02833
328.714	5.67605
328.928	6.00085
329.143	5.53556
329.358	6.71757
329.572	6.56624
329.787	7.04827
330.001	8.07794
330.216	4.76992
330.43	7.81389
330.645	7.04057
330.859	6.69186
331.074	5.16487
331.288	5.92017
331.503	7.49887
331.717	5.09184
331.931	6.18978
332.146	6.37019
332.36	7.8655
332.575	6.3446
332.789	6.35664
333.003	6.59737
333.218	6.63391
333.432	5.85281
333.646	7.02277
333.86	8.01361
334.075	7.70912
334.289	6.00071
334.503	5.14041
334.717	6.89231
334.932	6.68288
335.146	7.27849
335.36	6.04406
335.574	7.35852
335.788	6.82483
336.003	7.35611
336.217	7.52783
336.431	7.35973
336.645	6.54462
336.859	5.9186
337.073	6.72913
337.287	7.27922
337.501	5.88308
337.715	7.54402
337.929	7.76113
338.143	6.15874
338.357	6.91682
338.571	6.75433
338.785	8.13076
338.999	6.85026
339.213	6.77348
339.427	6.24539
339.641	8.57362
339.855	7.24606
340.069	6.72445
340.283	8.27074
340.497	9.06814
340.711	8.19998
340.924	7.69543
341.138	6.88915
341.352	6.65162
341.566	7.97886
341.78	6.69629
341.993	7.54093
342.207	7.33843
342.421	8.19437
342.635	7.81993
342.848	7.86057
343.062	6.13578
343.276	7.63892
343.49	9.79685
343.703	7.72355
343.917	9.30075
344.131	9.42585
344.344	7.76583
344.558	8.32166
344.771	7.33386
344.985	9.98611
345.199	10.0331
345.412	9.19164
345.626	9.21371
345.839	7.4461
346.053	7.87795
346.266	8.17348
346.48	9.34712
346.693	9.3624
346.907	9.06417
347.12	8.10745
347.334	9.11701
347.547	9.46299
347.76	8.89539
347.974	10.13355
348.187	9.33823
348.401	9.11879
348.614	8.30822
348.827	9.18664
349.041	9.56689
349.254	8.03354
349.467	9.02501
349.681	8.94464
349.894	8.84879
350.107	10.63402
350.32	11.38838
350.534	8.67134
350.747	9.50317
350.96	9.17826
351.173	9.279
351.386	9.72851
351.6	9.43634
351.813	9.629
352.026	9.86091
352.239	9.20623
352.452	9.76038
352.665	11.21331
352.878	10.22017
353.092	12.00261
353.305	10.99853
353.518	10.62119
353.731	9.822
353.944	11.49727
354.157	10.45254
354.37	10.48435
354.583	9.84976
354.796	9.99829
355.009	11.57678
355.222	11.41742
355.435	11.10381
355.647	12.07316
355.86	10.74723
356.073	11.60998
356.286	11.08439
356.499	12.19378
356.712	12.21165
356.925	12.32261
357.138	12.31681
357.35	11.38656
357.563	11.5889
357.776	12.11127
357.989	12.02659
358.201	12.51677
358.414	12.52327
358.627	13.19761
358.84	12.19015
359.052	11.46935
359.265	11.76182
359.478	13.2726
359.69	10.73808
359.903	13.41176
360.116	13.6061
360.328	11.87528
360.541	13.48952
360.753	12.63441
360.966	12.90627
361.179	13.28362
361.391	13.09625
361.604	13.09084
361.816	13.24486
362.029	13.28892
362.241	12.97521
362.454	13.40953
362.666	12.84195
362.879	13.97384
363.091	13.22963
363.304	13.21966
363.516	13.41121
363.728	13.03956
363.941	14.01925
364.153	13.98918
364.366	12.492
364.578	13.28517
364.79	14.10743
365.003	14.1516
365.215	13.5244
365.427	14.61948
365.639	14.68679
365.852	14.28425
366.064	15.63066
366.276	14.29737
366.488	14.57903
366.701	14.36566
366.913	14.33482
367.125	14.47389
367.337	13.92799
367.549	14.24037
367.762	14.59802
367.974	14.82562
368.186	14.51914
368.398	15.57242
368.61	15.18974
368.822	15.46986
369.034	14.66879
369.246	15.66651
369.458	17.35167
369.67	14.83304
369.882	16.48686
370.094	14.20008
370.306	16.62096
370.518	15.4483
370.73	15.33463
370.942	15.3981
371.154	15.8764
371.366	15.80386
371.578	16.38676
371.79	15.93613
372.002	16.74832
372.214	17.74595
372.425	16.04303
372.637	17.42663
372.849	16.58102
373.061	15.14105
373.273	16.69596
373.484	16.63436
373.696	17.14888
373.908	15.27245
374.12	17.44111
374.331	17.21749
374.543	16.42777
374.755	16.52044
374.967	17.09395
375.178	17.84231
375.39	16.9336
375.602	17.37574
375.813	16.24208
376.025	16.98208
376.236	17.84811
376.448	18.14617
376.66	17.70569
376.871	17.83238
377.083	18.81623
377.294	19.33881
377.506	17.91411
377.717	19.28249
377.929	18.57233
378.14	18.18772
378.352	18.61691
378.563	18.78485
378.775	19.30683
378.986	17.85907
379.197	18.61735
379.409	18.19124
379.62	19.20773
379.832	19.1652
380.043	18.84312
380.254	19.31249
380.466	18.3981
380.677	21.26123
380.888	20.55364
381.1	21.12503
381.311	21.19503
381.522	19.72253
381.733	21.35432
381.945	19.5434
382.156	19.64252
382.367	19.63315
382.578	21.87384
382.789	22.02833
383.001	19.5813
383.212	21.47349
383.423	21.46701
383.634	21.32661
383.845	21.14242
384.056	20.58864
384.267	20.74214
384.478	20.85996
384.69	20.27764
384.901	21.20755
385.112	21.13117
385.323	22.43331
385.534	21.39534
385.745	21.57868
385.956	21.45181
386.167	20.89624
386.378	21.77805
386.588	21.25237
386.799	21.08796
387.01	20.78589
387.221	22.28864
387.432	21.93201
387.643	22.96487
387.854	21.81844
388.065	21.8726
388.275	22.05452
388.486	21.66792
388.697	22.15114
388.908	21.95884
389.119	23.24385
389.329	23.35164
389.54	22.70476
389.751	22.83825
389.962	23.59354
390.172	22.87506
390.383	22.80082
390.594	22.72518
390.804	22.82955
391.015	23.09017
391.226	23.61384
391.436	23.77751
391.647	23.74542
391.858	24.01407
392.068	22.6709
392.279	23.06272
392.489	23.89957
392.7	24.31936
392.91	23.43791
393.121	23.46501
393.331	24.25747
393.542	24.76656
393.752	24.78893
393.963	24.54385
394.173	24.67285
394.384	24.74441
394.594	24.50641
394.804	23.70834
395.015	24.50551
395.225	24.91039
395.436	23.97009
395.646	24.85811
395.856	24.34358
396.067	23.74979
396.277	25.323
396.487	25.0177
396.697	25.12067
396.908	25.21114
397.118	25.35307
397.328	25.1214
397.538	25.71815
397.749	24.76878
397.959	25.75041
398.169	25.65371
398.379	24.49157
398.589	25.67011
398.8	25.83624
399.01	25.70628
399.22	25.47504
399.43	27.12854
399.64	25.79938
399.85	26.00334
400.06	25.88777
400.27	25.16812
400.48	25.88493
400.69	26.68436
400.9	25.73987
401.11	25.44321
401.32	26.49696
401.53	25.76243
401.74	27.20031
401.95	26.71565
402.16	25.98601
402.37	26.70845
402.58	26.19772
402.79	26.80625
403	27.29712
403.209	26.27731
403.419	27.67351
403.629	26.26455
403.839	27.66468
404.049	27.5301
404.258	26.80812
404.468	26.60212
404.678	27.31598
404.888	27.82291
405.097	26.85304
405.307	27.06301
405.517	27.64861
405.727	27.49916
405.936	27.04087
406.146	27.56084
406.356	27.97606
406.565	27.45081
406.775	27.05707
406.984	27.01001
407.194	28.55846
407.404	27.3381
407.613	27.81745
407.823	27.9355
408.032	28.33701
408.242	28.12909
408.451	27.41449
408.661	27.49539
408.87	28.92281
409.08	27.62405
409.289	28.20911
409.499	28.25351
409.708	27.97827
409.918	26.87133
410.127	28.19473
410.336	29.13837
410.546	28.44046
410.755	27.92681
410.964	28.0541
411.174	27.58706
411.383	28.48361
411.592	28.40674
411.802	27.6009
412.011	28.778
412.22	28.08405
412.429	29.41183
412.639	29.40535
412.848	28.92008
413.057	29.39942
413.266	29.32593
413.475	28.57086
413.685	28.92671
413.894	29.18906
414.103	29.32961
414.312	29.20083
414.521	28.59407
414.73	29.06531
414.939	30.40544
415.148	29.44222
415.357	29.29594
415.566	28.9756
415.776	29.00837
415.985	29.08285
416.194	29.59957
416.403	30.58604
416.611	28.64281
416.82	29.23095
417.029	29.76687
417.238	29.3892
417.447	29.28099
417.656	29.74822
417.865	29.34137
418.074	29.77199
418.283	29.7829
418.492	30.51921
418.7	30.24545
418.909	31.82305
419.118	30.99953
419.327	31.7347
419.536	31.93157
419.744	32.87272
419.953	34.69912
420.162	35.49401
420.371	35.9232
420.579	37.71603
420.788	38.48916
420.997	38.75828
421.205	40.25819
421.414	39.51738
421.623	39.99137
421.831	39.39874
422.04	39.85006
422.249	38.25898
422.457	38.35803
422.666	36.73057
422.874	37.64186
423.083	37.89756
423.291	38.09167
423.5	38.54845
423.708	39.49008
423.917	40.13139
424.125	39.73532
424.334	39.97399
424.542	41.54484
424.751	41.35578
424.959	40.53531
425.167	39.62781
425.376	39.65049
425.584	36.83121
425.793	36.07226
426.001	34.52755
426.209	33.26665
426.418	31.53494
426.626	30.40917
426.834	30.24042
427.042	30.52382
427.251	30.33573
427.459	31.23413
427.667	30.62362
427.875	30.07394
428.084	30.43112
428.292	31.52946
428.5	31.22371
428.708	30.39209
428.916	30.32336
429.124	31.0664
429.333	30.76501
429.541	30.90981
429.749	31.14321
429.957	31.09208
430.165	32.5918
430.373	30.4671
430.581	31.25939
430.789	32.00359
430.997	31.09347
431.205	30.83646
431.413	31.56656
431.621	31.37015
431.829	31.95491
432.037	31.47873
432.245	31.84842
432.453	31.92662
432.661	31.64956
432.869	32.80754
433.076	31.26148
433.284	31.65749
433.492	31.98798
433.7	32.20647
433.908	31.40091
434.116	31.69187
434.323	31.62938
434.531	31.43727
434.739	31.81403
434.947	32.02831
435.154	32.0334
435.362	31.56303
435.57	31.46417
435.778	31.13986
435.985	31.80754
436.193	31.53145
436.401	32.53842
436.608	31.88128
436.816	31.68862
437.023	32.70025
437.231	32.89412
437.439	32.13928
437.646	32.33754
437.854	32.27751
438.061	32.60612
438.269	32.0488
438.476	32.69587
438.684	32.34765
438.891	32.11753
439.099	32.11647
439.306	31.92488
439.514	32.00402
439.721	33.67711
439.929	34.09043
440.136	35.37843
440.343	35.72618
440.551	36.06245
440.758	37.82295
440.965	35.83042
441.173	35.82367
441.38	35.7109
441.587	34.03841
441.795	34.07126
442.002	32.65394
442.209	32.37448
442.416	32.56047
442.624	32.59987
442.831	32.39768
443.038	32.21311
443.245	32.00813
443.452	32.46488
443.66	32.84852
443.867	32.49374
444.074	32.53926
444.281	32.56708
444.488	32.81503
444.695	32.99146
444.902	32.85835
445.109	34.94835
445.316	35.83635
445.523	37.19908
445.73	38.41031
445.937	39.92651
446.144	41.1741
446.351	42.16014
446.558	40.46782
446.765	43.97061
446.972	41.9581
447.179	41.62464
447.386	41.81154
447.593	38.67028
447.8	39.80202
448.007	36.76645
448.214	34.87624
448.42	33.88012
448.627	33.23655
448.834	32.68956
449.041	32.56018
449.248	32.43657
449.454	33.10542
449.661	33.54165
449.868	32.59064
450.075	32.55471
450.281	31.74345
450.488	32.36131
450.695	32.50088
450.901	32.60628
451.108	32.74897
451.315	33.60843
451.521	32.92587
451.728	33.68698
451.935	32.69149
452.141	33.05458
452.348	33.06107
452.554	33.00771
452.761	32.8909
452.967	34.06465
453.174	33.27445
453.38	33.40439
453.587	32.55446
453.793	33.23165
454	33.7052
454.206	34.23794
454.413	33.79189
454.619	33.4787
454.825	32.89803
455.032	33.75226
455.238	33.90846
455.445	32.83884
455.651	33.53423
455.857	32.55692
456.064	33.24443
456.27	33.26873
456.476	33.3361
456.682	32.86394
456.889	33.73176
457.095	33.77995
457.301	35.05603
457.507	33.71424
457.714	33.76071
457.92	33.99884
458.126	33.60338
458.332	33.86024
458.538	33.95433
458.744	34.02116
458.951	34.0475
459.157	37.28404
459.363	38.19433
459.569	39.29288
459.775	40.10186
459.981	41.1251
460.187	41.89655
460.393	41.13251
460.599	40.78036
460.805	39.22661
461.011	36.728
461.217	34.99066
461.423	34.33859
461.629	33.70457
461.835	34.1057
462.041	33.59489
462.247	34.63794
462.453	33.72861
462.658	33.75776
462.864	34.21083
463.07	34.00852
463.276	34.18632
463.482	34.16288
463.688	34.85894
463.893	33.74388
464.099	34.24481
464.305	34.98204
464.511	33.95323
464.716	34.24118
464.922	34.82636
465.128	33.8103
465.333	35.22949
465.539	34.62352
465.745	34.23276
465.95	34.46894
466.156	35.9136
466.362	35.11247
466.567	34.41705
466.773	34.16059
466.978	35.09846
467.184	33.74327
467.389	33.30275
467.595	34.5308
467.8	33.99881
468.006	35.10961
468.211	34.99219
468.417	33.99413
468.622	34.77501
468.828	35.09658
469.033	34.80232
469.239	36.08873
469.444	34.4464
469.649	35.15134
469.855	34.60401
470.06	34.68933
470.266	34.24662
470.471	35.04929
470.676	34.9422
470.881	33.99917
471.087	35.48332
471.292	36.26691
471.497	34.07105
471.703	34.73497
471.908	34.58807
472.113	34.81164
472.318	35.36144
472.523	34.27477
472.729	35.22437
472.934	35.36402
473.139	34.67411
473.344	35.05322
473.549	35.55269
473.754	34.63324
473.959	36.32677
474.164	34.50722
474.369	34.94986
474.575	35.37846
474.78	35.15343
474.985	34.96304
475.19	34.23692
475.395	34.75811
475.6	35.15911
475.804	35.95989
476.009	35.19817
476.214	35.08281
476.419	35.01725
476.624	34.44429
476.829	34.83108
477.034	35.63031
477.239	34.86273
477.444	35.67725
477.648	35.50289
477.853	35.43449
478.058	35.04098
478.263	34.81701
478.468	34.72765
478.672	34.73979
478.877	35.91078
479.082	36.03627
479.287	35.43081
479.491	35.17913
479.696	34.98763
479.901	35.53426
480.105	35.77694
480.31	35.14852
480.515	35.48744
480.719	36.58461
480.924	35.40508
481.128	35.07467
481.333	35.89412
481.538	35.94706
481.742	37.69183
481.947	40.55248
482.151	44.00563
482.356	48.06659
482.56	55.07622
482.765	61.75834
482.969	72.02687
483.174	80.78691
483.378	91.91347
483.582	96.65807
483.787	98.46078
483.991	98.56309
484.196	98.58535
484.4	98.55998
484.604	98.54599
484.809	97.57056
485.013	91.58338
485.217	83.81348
485.422	75.7886
485.626	69.0268
485.83	64.71516
486.034	62.463
486.239	63.1456
486.443	64.60521
486.647	66.66008
486.851	69.62255
487.055	74.00144
487.26	76.00482
487.464	79.2977
487.668	79.18741
487.872	81.56286
488.076	80.69193
488.28	78.27793
488.484	74.14236
488.688	71.3974
488.892	67.32114
489.096	62.2757
489.3	58.09079
489.504	54.27326
489.708	51.04308
489.912	49.48996
490.116	48.45179
490.32	48.72684
490.524	51.93445
490.728	54.72902
490.932	58.55431
491.136	62.22879
491.34	65.17774
491.544	66.67358
491.748	68.05535
491.951	67.72936
492.155	66.42202
492.359	63.98369
492.563	59.85737
492.767	56.16265
492.97	50.91813
493.174	45.89634
493.378	41.90988
493.582	37.8525
493.785	35.70855
493.989	35.68708
494.193	35.69732
494.396	35.56069
494.6	36.13741
494.804	35.83111
495.007	35.62817
495.211	35.93607
495.414	36.00403
495.618	36.35281
495.822	36.9539
496.025	36.48973
496.229	36.69326
496.432	36.1076
496.636	36.51827
496.839	36.3399
497.043	37.23677
497.246	36.69449
497.45	36.33772
497.653	36.561
497.856	36.52077
498.06	36.03106
498.263	36.369
498.467	36.18918
498.67	36.97792
498.873	36.63618
499.077	36.37032
499.28	36.43008
499.483	36.42807
499.686	36.84775
499.89	36.57002
500.093	37.12248
500.296	36.2186
500.499	37.36596
500.703	36.47456
500.906	36.76554
501.109	37.42906
501.312	36.79879
501.515	36.72495
501.719	37.04161
501.922	37.40646
502.125	36.89307
502.328	36.74625
502.531	36.49185
502.734	36.96444
502.937	36.23311
503.14	36.93691
503.343	36.6772
503.546	36.74325
503.749	36.64494
503.952	37.51038
504.155	36.71519
504.358	37.34193
504.561	37.07776
504.764	36.33687
504.967	37.0021
505.17	36.937
505.373	37.66402
505.576	37.02879
505.778	37.39867
505.981	36.78171
506.184	37.7269
506.387	36.43881
506.59	38.2009
506.793	37.73831
506.995	37.34977
507.198	36.48186
507.401	37.53797
507.604	37.60054
507.806	36.95628
508.009	37.01522
508.212	37.70983
508.414	37.10652
508.617	37.11275
508.82	37.3033
509.022	38.16527
509.225	37.51857
509.427	36.91854
509.63	38.06321
509.833	37.46679
510.035	37.03816
510.238	36.75865
510.44	38.01653
510.643	36.56451
510.845	38.26189
511.048	37.58909
511.25	37.22496
511.453	37.35176
511.655	37.68701
511.858	37.37331
512.06	37.90475
512.262	37.52908
512.465	37.9957
512.667	37.18877
512.869	36.80692
513.072	37.58443
513.274	37.80377
513.476	37.83878
513.679	37.8553
513.881	37.09732
514.083	38.35531
514.286	37.31695
514.488	37.18278
514.69	37.11309
514.892	36.78556
515.094	37.89612
515.297	37.24221
515.499	37.79264
515.701	37.33609
515.903	38.58704
516.105	38.73341
516.307	38.21216
516.509	37.15402
516.711	37.31693
516.913	38.0323
517.116	38.09986
517.318	37.85125
517.52	38.70836
517.722	38.41502
517.924	37.73377
518.126	38.43251
518.328	38.21211
518.529	39.48797
518.731	40.33468
518.933	38.72772
519.135	38.77828
519.337	39.1478
519.539	38.00505
519.741	36.98567
519.943	37.62628
520.145	37.61371
520.346	38.0506
520.548	37.52867
520.75	37.92284
520.952	37.67746
521.153	37.85981
521.355	38.20356
521.557	37.66206
521.759	37.91713
521.96	37.90686
522.162	37.47164
522.364	38.45847
522.565	37.79397
522.767	38.29836
522.969	38.4323
523.17	38.29519
523.372	38.42542
523.573	37.85373
523.775	38.39994
523.977	37.85627
524.178	39.30004
524.38	38.20867
524.581	38.72676
524.783	38.44627
524.984	38.63862
525.186	38.78653
525.387	40.3538
525.589	41.10159
525.79	42.11169
525.991	42.61655
526.193	43.58652
526.394	43.41907
526.596	44.68585
526.797	46.09406
526.998	46.33521
527.2	49.52569
527.401	54.38211
527.602	59.38515
527.803	66.7331
528.005	72.53802
528.206	78.19429
528.407	82.5626
528.608	84.64313
528.81	85.64981
529.011	85.21298
529.212	85.49821
529.413	81.68314
529.614	76.57754
529.815	71.22539
530.017	65.58434
530.218	58.85945
530.419	53.49232
530.62	50.24003
530.821	47.24655
531.022	44.24309
531.223	44.21442
531.424	43.09643
531.625	43.69727
531.826	43.44812
532.027	45.46792
532.228	48.62146
532.429	50.79951
532.63	53.35793
532.831	56.48692
533.032	57.83015
533.233	59.75538
533.433	59.10501
533.634	59.53214
533.835	57.993
534.036	56.00037
534.237	53.28143
534.438	50.35838
534.638	46.19792
534.839	43.45093
535.04	41.34841
535.241	39.78197
535.441	40.27631
535.642	40.13456
535.843	40.38018
536.043	41.24074
536.244	42.07049
536.445	42.76837
536.645	43.87345
536.846	43.59958
537.047	43.56585
537.247	41.99114
537.448	40.62028
537.648	39.39093
537.849	38.26159
538.049	38.36155
538.25	38.76561
538.451	38.70192
538.651	38.23521
538.851	39.07228
539.052	39.40167
539.252	39.18518
539.453	39.02382
539.653	39.32989
539.854	39.23688
540.054	39.82104
540.254	44.63201
540.455	49.10339
540.655	52.46007
540.855	57.96505
541.056	61.27333
541.256	62.84911
541.456	64.7608
541.657	65.47933
541.857	65.25746
542.057	63.45806
542.257	61.23641
542.458	59.5808
542.658	56.31409
542.858	52.24031
543.058	49.35072
543.258	47.16252
543.458	43.91211
543.659	42.2186
543.859	41.47677
544.059	39.94181
544.259	38.58304
544.459	39.0926
544.659	38.41488
544.859	39.00484
545.059	38.69717
545.259	39.32053
545.459	39.22377
545.659	39.44044
545.859	39.00267
546.059	39.36399
546.259	38.75966
546.459	38.4795
546.659	38.49447
546.859	39.45382
547.059	39.31917
547.258	39.13699
547.458	39.21204
547.658	38.28792
547.858	38.17583
548.058	38.97302
548.258	38.72074
548.457	38.36101
548.657	40.27157
548.857	38.76896
549.057	39.50872
549.256	39.12367
549.456	38.78002
549.656	38.04978
549.855	40.15314
550.055	38.86704
550.255	40.4404
550.454	39.4113
550.654	39.68205
550.853	39.97571
551.053	39.71477
551.253	39.56703
551.452	39.94352
551.652	38.70275
551.851	38.62662
552.051	39.13118
552.25	39.23937
552.45	39.00486
552.649	39.22723
552.849	38.85261
553.048	39.51875
553.248	39.66055
553.447	38.52572
553.646	39.61099
553.846	40.73719
554.045	39.88583
554.244	38.43865
554.444	40.14089
554.643	38.79917
554.842	40.26543
555.042	40.59135
555.241	39.08755
555.44	38.69435
555.64	39.68533
555.839	40.35558
556.038	39.86337
556.237	38.97984
556.436	39.69619
556.636	39.53947
556.835	39.11458
557.034	40.42458
557.233	39.65297
557.432	38.53076
557.631	40.29163
557.83	39.13599
558.029	39.22691
558.228	39.23794
558.427	39.0247
558.626	40.0122
558.825	39.08698
559.024	39.45169
559.223	40.81277
559.422	39.4707
559.621	39.58153
559.82	38.00733
560.019	39.55182
560.218	39.34184
560.417	38.14269
560.616	39.21232
560.815	41.7694
561.014	38.62367
561.212	40.71004
561.411	39.92817
561.61	38.88538
561.809	39.36487
562.008	40.70336
562.206	39.34959
562.405	40.03892
562.604	39.72465
562.803	39.69576
563.001	39.46347
563.2	38.97375
563.399	39.88779
563.597	39.03047
563.796	39.66582
563.995	39.09953
564.193	40.46068
564.392	39.31202
564.59	41.07792
564.789	38.77173
564.988	39.88287
565.186	40.18054
565.385	39.80306
565.583	39.64752
565.782	39.99839
565.98	39.83166
566.179	39.5528
566.377	39.15437
566.575	39.32903
566.774	40.6006
566.972	40.05161
567.171	40.68313
567.369	40.58167
567.567	39.78331
567.766	40.07673
567.964	38.68491
568.162	40.18381
568.361	40.6971
568.559	39.62922
568.757	40.11956
568.956	39.97936
569.154	40.022
569.352	40.39404
569.55	39.86793
569.748	40.08521
569.947	39.50516
570.145	39.14005
570.343	39.32574
570.541	41.068
570.739	39.31601
570.937	40.05522
571.135	40.37627
571.333	41.57805
571.532	41.53476
571.73	40.34699
571.928	40.73319
572.126	40.43413
572.324	39.70546
572.522	40.70159
572.72	41.73688
572.918	40.09753
573.116	40.29027
573.313	39.77689
573.511	40.15326
573.709	39.5916
573.907	40.70219
574.105	40.00967
574.303	39.25991
574.501	39.22777
574.699	40.55665
574.896	40.31014
575.094	40.59458
575.292	39.30079
575.49	40.72
575.688	39.88993
575.885	40.9456
576.083	41.82107
576.281	40.27737
576.478	39.55579
576.676	40.37316
576.874	39.28602
577.071	40.0486
577.269	41.9159
577.467	40.11936
577.664	39.95354
577.862	40.7805
578.059	39.58659
578.257	40.68519
578.455	39.92033
578.652	40.261
578.85	38.90332
579.047	40.25452
579.245	40.00657
579.442	40.03443
579.64	40.07989
579.837	39.10167
580.034	42.39201
580.232	40.01428
580.429	39.15023
580.627	40.81915
580.824	41.12336
581.021	40.72284
581.219	39.89768
581.416	39.94927
581.613	41.6621
581.811	41.42645
582.008	39.91947
582.205	40.98135
582.402	40.78317
582.6	41.57026
582.797	40.87473
582.994	40.78095
583.191	40.9513
583.388	40.35352
583.586	40.93913
583.783	41.54591
583.98	39.38046
584.177	40.50356
584.374	38.49358
584.571	40.16641
584.768	39.92403
584.965	40.1061
585.162	41.0939
585.359	41.66361
585.556	40.63921
585.753	40.76278
585.95	39.32511
586.147	39.57567
586.344	41.04682
586.541	40.40797
586.738	39.21518
586.935	40.2976
587.132	39.98859
587.329	41.23475
587.526	40.7129
587.722	44.51711
587.919	39.51317
588.116	40.86547
588.313	41.70989
588.51	42.17466
588.706	40.39489
588.903	41.1448
589.1	41.19535
589.297	42.88771
589.493	40.77687
589.69	40.9661
589.887	39.97132
590.083	39.57087
590.28	39.77684
590.477	41.35808
590.673	41.01087
590.87	41.71016
591.067	40.0762
591.263	40.90178
591.46	40.7605
591.656	40.2148
591.853	41.71696
592.049	39.95633
592.246	40.02914
592.442	41.3483
592.639	42.11363
592.835	40.05257
593.032	41.07998
593.228	39.75808
593.425	39.45319
593.621	39.45486
593.817	41.16169
594.014	40.16235
594.21	41.05834
594.406	41.61919
594.603	41.18498
594.799	40.23396
594.995	39.1225
595.192	41.97219
595.388	40.64717
595.584	40.6419
595.78	39.87992
595.977	43.22909
596.173	42.35237
596.369	40.78658
596.565	40.23135
596.761	39.78293
596.957	41.63703
597.154	40.25302
597.35	39.99118
597.546	40.05312
597.742	41.02748
597.938	40.86081
598.134	40.06117
598.33	40.76391
598.526	41.72958
598.722	40.74819
598.918	41.95939
599.114	41.19034
599.31	39.69636
599.506	40.57057
599.702	40.03073
599.898	40.78566
600.094	41.4566
600.29	41.56636
600.485	41.81453
600.681	40.18614
600.877	42.653
601.073	40.79893
601.269	42.75349
601.465	42.41122
601.66	40.1852
601.856	39.53592
602.052	43.11494
602.248	40.87432
602.443	39.54956
602.639	40.2141
602.835	40.69451
603.03	40.52208
603.226	41.96685
603.422	40.56527
603.617	41.14623
603.813	40.81029
604.009	40.68944
604.204	41.86023
604.4	39.93891
604.595	41.95708
604.791	40.04153
604.986	41.105
605.182	40.14263
605.377	40.43208
605.573	40.36757
605.768	40.72554
605.964	41.11938
606.159	41.2951
606.355	41.54206
606.55	40.53292
606.746	41.52532
606.941	40.91222
607.136	42.60849
607.332	43.37281
607.527	39.97903
607.722	41.37094
607.918	40.87353
608.113	40.56773
608.308	42.21051
608.503	41.92491
608.699	41.57224
608.894	42.00806
609.089	40.60757
609.284	41.66927
609.479	40.90572
609.675	41.5531
609.87	40.60981
610.065	41.63191
610.26	41.64229
610.455	41.77034
610.65	40.87379
610.845	41.17604
611.04	41.92407
611.235	40.87653
611.43	41.01829
611.625	40.33018
611.82	42.42785
612.015	40.74302
612.21	42.84293
612.405	39.64759
612.6	42.44553
612.795	42.5497
612.99	41.51458
613.185	40.28175
613.38	40.57239
613.575	41.51927
613.77	44.13159
613.965	39.75531
614.159	40.3874
614.354	42.83414
614.549	42.32053
614.744	42.04344
614.938	40.35675
615.133	39.92332
615.328	42.8292
615.523	42.51217
615.717	44.59257
615.912	40.76093
616.107	41.32817
616.301	41.40059
616.496	40.89369
616.691	42.78043
616.885	41.97852
617.08	45.02758
617.274	42.21188
617.469	43.43255
617.664	42.05379
617.858	40.9905
618.053	41.94017
618.247	41.01051
618.442	38.95779
618.636	43.25178
618.831	40.54459
619.025	40.75524
619.219	44.79388
619.414	38.28227
619.608	40.84394
619.803	40.91267
619.997	43.64024
620.191	42.55243
620.386	42.08262
620.58	41.38152
620.774	39.33715
620.969	39.5483
621.163	41.42162
621.357	40.60425
621.551	41.22344
621.746	41.63304
621.94	41.04124
622.134	45.22494
622.328	44.01207
622.522	39.39522
622.716	42.63078
622.911	42.78457
623.105	42.52046
623.299	42.39377
623.493	45.23393
623.687	40.6389
623.881	40.77978
624.075	42.1749
624.269	43.22634
624.463	39.42924
624.657	40.17616
624.851	42.36587
625.045	42.78345
625.239	43.00096
625.433	41.59009
625.627	44.03857
625.821	41.65452
626.015	41.08907
626.209	42.3233
626.403	40.56258
626.596	42.64247
626.79	42.86716
626.984	40.57688
627.178	42.49364
627.372	42.36663
627.565	42.62568
627.759	40.1861
627.953	40.34971
628.147	42.0909
628.34	42.64416
628.534	44.58212
628.728	41.52237
628.921	42.76895
629.115	42.52295
629.309	42.98932
629.502	43.00408
629.696	41.54458
629.89	41.85176
630.083	42.60961
630.277	42.18963
630.47	43.52628
630.664	41.64775
630.857	40.20951
631.051	42.80681
631.244	43.14226
631.438	42.64108
631.631	40.75556
631.825	43.72085
632.018	42.97196
632.212	44.24312
632.405	43.59823
632.598	40.82388
632.792	42.00837
632.985	39.51752
633.178	42.05471
633.372	42.00114
633.565	41.75546
633.758	43.64859
633.952	41.09916
634.145	41.02251
634.338	42.09689
634.531	41.39587
634.724	40.94347
634.918	42.28223
635.111	41.6358
635.304	41.52947
635.497	45.16266
635.69	42.43567
635.883	43.59512
636.077	40.84446
636.27	42.82955
636.463	42.48769
636.656	42.45266
636.849	41.78389
637.042	42.91485
637.235	44.43905
637.428	43.39884
637.621	42.41445
637.814	44.3159
638.007	44.42438
638.2	43.62778
638.393	45.06198
638.586	40.35575
638.778	41.98638
638.971	41.97491
639.164	43.90763
639.357	42.64774
639.55	44.41654
639.743	43.4362
639.935	42.86903
640.128	45.6326
640.321	43.7571
640.514	42.5208
640.707	45.71455
640.899	43.3138
641.092	40.06772
641.285	58.11704
641.477	39.49998
641.67	45.79779
641.863	44.39971
642.055	42.89398
642.248	42.61148
642.441	41.51513
642.633	43.15463
642.826	43.94245
643.018	44.47522
643.211	45.63193
643.403	45.59901
643.596	45.9922
643.788	45.14005
643.981	42.54226
644.173	43.97886
644.366	42.08365
644.558	40.11767
644.751	44.42934
644.943	40.51439
645.135	44.97699
645.328	45.56749
645.52	43.42379
645.712	44.57389
645.905	47.13366
646.097	41.06839
646.289	42.89788
646.482	46.12103
646.674	41.39854
646.866	44.76295
647.058	43.48792
647.251	40.87363
647.443	41.94096
647.635	42.78402
647.827	40.68434
648.019	41.44838
648.211	42.20167
648.404	42.46746
648.596	45.77207
648.788	43.37639
648.98	43.36482
649.172	43.85151
649.364	43.45918
649.556	40.42237
649.748	47.7508
649.94	41.61585
650.132	44.43094
650.324	41.76324
650.516	42.30441
650.708	44.93979
650.9	41.46677
651.092	41.09106
651.284	41.54949
651.476	41.63936
651.667	44.47253
651.859	46.10034
652.051	43.09259
652.243	43.47815
652.435	42.63856
652.627	44.32318
652.818	44.12932
653.01	40.60201
653.202	41.98061
653.394	42.29544
653.585	43.98323
653.777	51.01953
653.969	45.57147
654.16	45.29013
654.352	41.85965
654.544	43.05257
654.735	44.92943
654.927	43.93348
655.118	46.09252
655.31	44.16461
655.502	45.64715
655.693	43.21158
655.885	43.98535
656.076	46.15627
656.268	43.89438
656.459	46.51344
656.651	45.52762
656.842	42.68562
657.034	42.47874
657.225	45.33213
657.416	46.55693
657.608	46.7524
657.799	44.23038
657.99	46.22573
658.182	43.63956
658.373	43.1117
658.564	46.44702
658.756	45.09273
658.947	44.24216
659.138	42.95775
659.33	43.23753
659.521	43.11494
659.712	43.89129
659.903	43.39233
660.094	43.3236
660.286	41.62682
660.477	46.56609
660.668	45.12435
660.859	43.48533
661.05	41.78094
661.241	44.66013
661.432	44.30666
661.623	43.12332
661.814	42.91708
662.006	41.38207
662.197	44.13814
662.388	45.52218
662.579	44.73722
662.77	46.28233
662.96	48.84489
663.151	44.78941
663.342	40.8116
663.533	45.35748
663.724	44.3098
663.915	47.48563
664.106	44.12853
664.297	47.60202
664.488	45.46388
664.678	42.89871
664.869	45.71702
665.06	45.71054
665.251	44.56902
665.442	45.03069
665.632	41.95538
665.823	47.38107
666.014	38.66474
666.204	45.44919
666.395	46.77945
666.586	49.18194
666.776	45.88184
666.967	47.84044
667.158	44.41616
667.348	47.28594
667.539	42.68845
667.729	46.09818
667.92	43.00891
668.111	46.65246
668.301	45.91839
668.492	44.51022
668.682	45.52361
668.873	44.6306
669.063	42.50864
669.253	45.68748
669.444	47.6605
669.634	44.64088
669.825	48.42814
670.015	47.68639
670.206	43.12075
670.396	47.94199
670.586	44.15244
670.777	45.36093
670.967	40.8111
671.157	44.71083
671.347	43.62731
671.538	47.48743
671.728	46.03729
671.918	48.99437
672.108	46.84157
672.299	44.31052
672.489	46.06152
672.679	43.61675
672.869	46.11251
673.059	50.22715
673.249	45.83529
673.44	42.8841
673.63	45.135
673.82	46.84935
674.01	42.86547
674.2	45.75827
674.39	51.01246
674.58	46.99641
674.77	45.32011
674.96	44.64368
675.15	53.76851
675.34	48.22788
675.53	44.95797
675.72	45.03417
675.91	41.97938
676.099	49.93019
676.289	50.2363
676.479	48.1648
676.669	44.54516
676.859	46.57348
677.049	43.76476
677.238	45.46587
677.428	50.06294
677.618	46.91212
677.808	50.27868
677.997	47.18127
678.187	44.18398
678.377	46.13756
678.567	44.76535
678.756	45.4705
678.946	46.24206
679.136	43.66343
679.325	45.46098
679.515	44.89005
679.704	43.42097
679.894	48.7134
680.084	47.60056
680.273	48.53359
680.463	45.00711
680.652	44.239
680.842	46.55428
681.031	48.24473
681.221	44.67237
681.41	47.65576
681.6	46.14548
681.789	47.39996
681.978	48.92291
682.168	46.99729
682.357	46.45447
682.547	47.44369
682.736	47.08059
682.925	49.17036
683.115	49.21619
683.304	48.36531
683.493	46.83254
683.682	48.17094
683.872	47.35779
684.061	49.17068
684.25	47.83511
684.439	51.73703
684.629	48.36213
684.818	55.05808
685.007	46.8777
685.196	46.0329
685.385	51.39011
685.574	47.51647
685.763	48.15965
685.952	47.64086
686.142	43.79419
686.331	50.12888
686.52	43.64329
686.709	52.28065
686.898	51.56978
687.087	48.40998
687.276	51.20442
687.465	50.34409
687.654	47.37974
687.842	51.02912
688.031	45.2474
688.22	50.96713
688.409	48.01501
688.598	47.74875
688.787	53.61883
688.976	47.75692
689.165	52.47834
689.353	46.97262
689.542	48.01029
689.731	50.46336
689.92	52.82469
690.108	50.38337
690.297	47.18241
690.486	48.4114
690.675	49.84033
690.863	52.95373
691.052	52.03512
691.241	48.98287
691.429	48.66377
691.618	52.17171
691.806	45.18421
691.995	47.60394
692.184	48.13425
692.372	47.34339
692.561	48.78246
692.749	48.62334
692.938	57.31249
693.126	50.39708
693.315	47.87508
693.503	51.00363
693.692	51.89634
693.88	50.57413
694.068	54.24426
694.257	48.7269
694.445	50.62254
694.634	43.38391
694.822	50.86051
695.01	51.99534
695.199	55.1024
695.387	53.07789
695.575	52.3519
695.763	48.41793
695.952	47.91389
696.14	45.1271
696.328	48.11072
696.516	48.82431
696.705	50.51181
696.893	49.40631
697.081	44.60848
697.269	51.6499
697.457	46.98349
697.645	45.96432
697.833	51.85105
698.021	47.2409
698.21	47.81963
698.398	49.0289
698.586	46.53391
698.774	46.13766
698.962	49.1014
699.15	46.37342
699.338	45.27829
699.526	50.13063
699.714	47.0812
699.901	47.19368
700.089	51.09124
700.277	47.06314
700.465	48.74127
700.653	50.62762
700.841	49.94988
701.029	46.80576
701.217	53.48295
701.404	48.99098
701.592	53.89299
701.78	56.45327
701.968	49.19237
702.155	48.53541
702.343	45.50515
702.531	53.68955
702.718	50.6756
702.906	47.69796
703.094	47.95702
703.281	53.14889
703.469	49.68801
703.657	52.68984
703.844	60.24495
704.032	56.53772
704.219	49.1644
704.407	52.01125
704.595	55.85964
704.782	51.9184
704.97	51.13939
705.157	51.18781
705.345	57.90868
705.532	64.49119
705.719	55.24345
705.907	59.07898
706.094	55.18928
706.282	61.43994
706.469	55.42568
706.656	56.58971
706.844	55.69715
707.031	59.90442
707.218	58.67671
707.406	62.64061
707.593	59.9109
707.78	60.45804
707.968	57.98994
708.155	56.58801
708.342	59.87186
708.529	60.96493
708.716	59.76899
708.904	64.13985
709.091	60.57783
709.278	54.9128
709.465	65.73229
709.652	62.69212
709.839	62.16366
710.026	57.29528
710.213	52.14666
710.4	57.06275
710.587	58.79739
710.774	60.12189
710.961	61.04155
711.148	57.08163
711.335	60.36002
711.522	56.88815
711.709	58.6835
711.896	64.26896
712.083	60.83764
712.27	54.8236
712.457	58.89677
712.644	53.37119
712.831	64.54939
713.017	57.49777
713.204	59.88302
713.391	55.0593
713.578	60.42902
713.765	61.80713
713.951	57.82668
714.138	66.5076
714.325	56.25942
714.512	55.24205
714.698	51.80061
714.885	60.45796
715.072	54.64813
715.258	54.17033
715.445	51.4018
715.631	58.08334
715.818	44.62023
716.005	51.16159
716.191	55.17752
716.378	51.63401
716.564	56.24873
716.751	49.84329
716.937	51.17848
717.124	55.84308
717.31	50.53889
717.497	60.10982
717.683	50.35507
717.869	60.66077
718.056	50.68393
718.242	53.78474
718.429	51.50626
718.615	48.4104
718.801	53.32465
718.988	57.50814
719.174	54.84611
719.36	52.06777
719.547	58.18142
719.733	52.69982
719.919	53.50358
720.105	54.63523
720.291	52.70258
720.478	53.48016
720.664	53.6602
720.85	51.60868
721.036	63.47825
721.222	60.69585
721.408	53.68629
721.595	60.9505
721.781	59.41954
721.967	58.10924
722.153	60.45374
722.339	56.25889
722.525	54.56035
722.711	49.44187
722.897	49.72341
723.083	52.06744
723.269	57.68335
723.455	66.21176
723.641	71.27281
723.827	54.2519
724.012	55.72102
724.198	53.0773
724.384	59.97467
724.57	55.11267
724.756	47.81338
724.942	45.18347
725.127	58.52523
725.313	59.52424
725.499	59.97503
725.685	62.09248
725.87	55.37923
726.056	50.84072
726.242	60.24347
726.428	47.65642
726.613	58.21013
726.799	51.71065
726.985	49.60283
727.17	46.99849
727.356	63.24964
727.541	50.06831
727.727	53.76462
727.913	56.78722
728.098	52.28336
728.284	56.75991
728.469	49.5671
728.655	51.34215
728.84	59.20043
729.026	58.21549
729.211	57.21748
729.397	57.04518
729.582	58.7746
729.767	54.60375
729.953	56.04619
730.138	61.08601
730.323	45.50643
730.509	50.44016
730.694	62.83175
730.879	58.64033
731.065	55.23517
731.25	65.19989
731.435	58.20569
731.621	49.20488
731.806	52.01277
731.991	55.48363
732.176	48.67224
732.361	62.92138
732.547	56.3425
732.732	49.16867
732.917	65.86437
733.102	50.12212
733.287	51.79095
733.472	54.5453
733.657	54.9026
733.842	48.54498
734.027	51.91159
734.212	53.89727
734.397	52.11907
734.582	55.29277
734.767	60.5569
734.952	62.53421
735.137	44.42524
735.322	61.99807
735.507	57.47365
735.692	55.40336
735.877	64.99165
736.062	63.40798
736.247	57.3967
736.431	54.35182
736.616	59.88898
736.801	56.49982
736.986	55.4453
737.171	49.87037
737.355	49.18288
737.54	61.15246
737.725	56.25464
737.909	68.06688
738.094	52.58236
738.279	60.74986
738.463	52.51989
738.648	57.6558
738.833	57.98668
739.017	65.3269
739.202	53.13809
739.386	53.98583
739.571	50.58408
739.756	59.37944
739.94	54.61927
740.125	57.62498
740.309	50.77863
740.494	61.52992
740.678	55.54006
740.863	57.1101
741.047	55.29466
741.231	63.80176
741.416	52.62077
741.6	63.76542
741.785	51.15245
741.969	60.0552
742.153	63.35318
742.338	46.64983
742.522	55.24898
742.706	59.0199
742.89	49.4168
743.075	56.55438
743.259	62.48721
743.443	60.9374
743.627	64.26174
743.812	67.98304
743.996	47.66609
744.18	54.16908
744.364	54.06229
744.548	70.03584
744.732	54.06895
744.916	61.49406
745.1	59.55073
745.285	55.26194
745.469	59.33237
745.653	64.63261
745.837	50.64306
746.021	69.02692
746.205	64.46473
746.389	56.9269
746.573	55.86762
746.757	65.07877
746.94	54.79154
747.124	63.93517
747.308	50.02225
747.492	63.71785
747.676	50.64694
747.86	70.93416
748.044	53.92506
748.227	47.71093
748.411	78.98687
748.595	57.41341
748.779	50.81422
748.963	57.71866
749.146	57.21203
749.33	51.36373
749.514	50.99059
749.697	63.16764
749.881	52.77569
750.065	51.25527
750.248	57.11206
750.432	70.81124
750.616	56.77651
750.799	49.84141
750.983	71.33535
751.166	70.28905
751.35	48.21532
751.533	60.12582
751.717	67.16444
751.9	65.63697
752.084	54.65327
752.267	51.99897
752.451	53.01704
752.634	58.40311
752.818	60.59091
753.001	61.74018
753.184	63.91801
753.368	60.48079
753.551	38.57725
753.734	52.02771
753.918	71.6325
754.101	52.41081
754.284	60.9326
754.467	54.03825
754.651	52.94052
754.834	50.8123
755.017	64.11315
755.2	64.13459
755.384	51.45576
755.567	62.57212
755.75	62.54933
755.933	54.90408
756.116	62.61929
756.299	53.57989
756.482	52.09141
756.665	59.51561
756.848	55.92048
757.032	58.85697
757.215	48.07446
757.398	51.64353
757.581	51.93872
757.764	76.17333
757.947	55.78423
758.129	62.44348
758.312	40.81216
758.495	55.92905
758.678	56.05346
758.861	52.69555
759.044	67.5745
759.227	51.08771
759.41	51.04096
759.592	61.84404
759.775	54.65259
759.958	62.04715
760.141	49.76348
760.324	73.94696
760.506	67.10948
760.689	63.55482
760.872	70.45453
761.054	60.25044
761.237	56.79483
761.42	57.67281
761.602	62.80848
761.785	59.36961
761.968	66.68237
762.15	69.03252
762.333	56.86514
762.515	61.54083
762.698	54.93401
762.88	64.27885
763.063	58.96138
763.245	64.25595
763.428	52.41152
763.61	55.22923
763.793	50.78315
763.975	59.66297
764.158	56.56395
764.34	54.35111
764.522	52.77423
764.705	56.91882
764.887	67.0529
765.069	49.25732
765.252	60.6971
765.434	61.09507
765.616	58.91372
765.799	53.20092
765.981	62.17952
766.163	55.77694
766.345	66.91678
766.528	53.71896
766.71	45.9457
766.892	59.03187
767.074	66.23146
767.256	56.658
767.438	70.04898
767.62	59.49457
767.802	73.41621
767.985	62.92974
768.167	71.95197
768.349	55.55099
768.531	62.49521
768.713	59.5442
768.895	61.85405
769.077	61.2244
769.259	78.80291
769.441	93.92022
769.623	64.89697
769.804	68.80346
769.986	67.51276
770.168	74.63692
770.35	84.96888
770.532	69.4641
770.714	76.59124
770.896	75.02518
771.077	53.03542
771.259	78.71538
771.441	70.72298
771.623	81.7893
771.804	91.39558
771.986	52.98708
772.168	63.06867
772.35	78.33376
772.531	91.77402
772.713	70.47106
772.894	84.5896
773.076	70.31423
773.258	63.54525
773.439	85.08726
773.621	90.73023
773.802	61.82765
773.984	63.32179
774.166	71.69329
774.347	85.42969
774.529	82.61137
774.71	50.39986
774.891	69.18285
775.073	64.03232
775.254	83.72941
775.436	61.58031
775.617	97.89255
775.799	64.43894
775.98	82.03049
776.161	88.99724
776.343	92.38179
776.524	69.8351
776.705	68.13994
776.886	51.42185
777.068	74.22244
777.249	120.65135
777.43	94.29196
777.611	59.53232
777.793	66.48444
777.974	89.05295
778.155	63.87604
778.336	59.12114
778.517	100.87886
778.698	62.97401
778.879	51.71494
779.061	43.32466
779.242	75.88903
779.423	78.34938
779.604	64.64231
779.785	66.80615
779.966	73.1143
780.147	84.18527
780.328	81.79256
780.509	102.51432
780.69	82.482
780.871	63.93738
781.051	54.8443
781.232	71.90666
781.413	70.62743
781.594	66.04175
781.775	64.87628
781.956	61.50102
782.137	48.0931
782.317	62.35981
782.498	71.90387
782.679	68.28774
782.86	74.67681
783.04	64.28863
783.221	73.95073
783.402	91.55572
783.583	69.97853
783.763	82.05675
783.944	64.36048
784.124	54.81001
784.305	92.00564
784.486	77.43177
784.666	68.59824
784.847	53.89672
785.027	112.24507
785.208	64.15986
785.388	60.29586
785.569	64.53728
785.749	67.42904
785.93	67.33331
786.11	54.40767
786.291	78.00087
786.471	71.66067
786.652	81.70113
786.832	68.88737
787.012	71.02434
787.193	58.91504
787.373	70.21626
787.553	65.4325
787.734	73.91701
787.914	65.85175
788.094	82.10267
788.275	75.19296
788.455	65.37782
788.635	57.91671
788.815	72.77448
788.995	58.33603
789.176	53.08224
789.356	61.05301
789.536	67.59137
789.716	75.62199
789.896	61.0329
790.076	63.07768
790.256	73.9159
790.436	45.47441
790.616	59.74696
790.796	73.32463
790.976	65.09179
791.156	61.5126
791.336	77.13415
791.516	72.93869
791.696	67.3744
791.876	55.54815
792.056	72.04699
792.236	82.15311
792.416	80.69745
792.596	73.66192
792.776	75.82859
792.956	78.82196
793.135	92.33967
793.315	59.8882
793.495	84.14438
793.675	79.27792
793.854	81.17723
794.034	81.91462
794.214	59.971
794.394	82.12145
794.573	87.94007
794.753	73.32949
794.933	59.99728
795.112	72.57282
795.292	82.66873
795.472	91.76253
795.651	55.32319
795.831	70.19743
796.01	67.79691
796.19	65.59292
796.369	72.10976
796.549	76.03883
796.728	66.9778
796.908	56.52532
797.087	57.06308
797.267	63.93553
797.446	57.6659
797.626	76.67492
797.805	75.28952
797.984	62.07318
798.164	80.26373
798.343	61.62331
798.522	72.63991
798.702	72.94714
798.881	56.19652
799.06	67.72281
799.239	50.64005
799.419	61.36618
799.598	93.01059
799.777	73.55618
799.956	87.46174
800.136	66.55778
800.315	60.86901
800.494	77.04439
800.673	86.00398
800.852	80.09512
801.031	86.15761
801.21	77.62882
801.389	67.23804
801.568	71.24255
801.747	95.70069
801.926	71.61155
802.105	89.62146
802.284	64.47818
802.463	92.65811
802.642	76.2507
802.821	74.90519
803	90.05124
803.179	82.83514
803.358	86.06771
803.537	63.20169
803.716	69.37672
803.895	63.31042
804.073	69.16803
804.252	62.30159
804.431	76.60845
804.61	67.84823
804.789	79.39718
804.967	63.76159
805.146	66.10559
805.325	98.64
805.503	75.74338
805.682	56.39241
805.861	113.47541
806.039	88.73498
806.218	67.93362
806.397	74.30714
806.575	70.07931
806.754	76.68881
806.932	59.14264
807.111	83.7055
807.289	83.99396
807.468	71.30266
807.646	82.82159
807.825	81.47875
808.003	74.11164
808.182	84.95691
808.36	72.41576
808.539	60.93616
808.717	92.24829
808.895	63.87534
809.074	75.39856
809.252	72.35135
809.43	79.356
809.609	90.17733
809.787	91.76886
809.965	69.63312
810.144	72.79449
810.322	75.2873
810.5	78.35361
810.678	68.01884
810.856	101.90236
811.035	87.40142
811.213	80.90722
811.391	93.02247
811.569	77.15541
811.747	126.84713
811.925	91.76286
812.103	66.99615
812.281	75.2613
812.459	100.63465
812.637	97.8292
812.816	86.05213
812.994	104.22034
813.171	95.4092
813.349	78.65463
813.527	86.03075
813.705	94.55803
813.883	113.78842
814.061	86.18076
814.239	99.30095
814.417	105.14316
814.595	82.4247
814.773	80.84519
814.95	75.76503
815.128	80.96487
815.306	80.72943
815.484	75.09102
815.662	64.69357
815.839	61.98083
816.017	67.96569
816.195	93.31291
816.372	69.80262
816.55	84.90724
816.728	97.19008
816.905	73.2716
817.083	98.63233
817.261	72.70243
817.438	119.66553
817.616	98.56986
817.793	67.05379
817.971	88.60735
818.148	86.34267
818.326	94.68814
818.503	79.80808
818.681	98.10916
818.858	71.70272
819.036	73.18595
819.213	76.36578
819.391	66.40045
819.568	66.07454
819.745	62.07845
819.923	85.20385
820.1	71.90751
820.277	65.67481
820.455	70.26399
820.632	72.64955
820.809	76.18664
820.986	61.72851
821.164	57.07471
821.341	55.52574
821.518	65.60987
821.695	57.24943
821.872	55.86458
822.05	53.24677
822.227	49.4905
822.404	50.30931
822.581	53.06468
822.758	50.7715
822.935	50.45508
823.112	52.69622
823.289	49.92867
823.466	52.83911
823.643	51.96985
823.82	55.70293
823.997	53.93172
824.174	56.82264
824.351	64.3486
824.528	63.23281
824.705	61.89499
824.882	63.89041
825.059	71.22254
825.236	61.96704
825.412	62.80452
825.589	67.482
825.766	79.00479
825.943	63.84215
826.12	67.30895
826.296	59.45428
826.473	64.47306
826.65	65.07115
826.827	68.92762
827.003	58.22656
827.18	60.67312
827.357	63.94898
827.533	59.88258
827.71	49.96531
827.887	56.48152
828.063	60.11439
828.24	55.73489
828.416	62.18006
828.593	58.40759
828.769	67.88484
828.946	68.56932
829.122	71.18068
829.299	69.18537
829.475	57.90785
829.652	68.96309
829.828	89.16648
830.005	68.79528
830.181	83.44658
830.357	71.47865
830.534	85.32019
830.71	72.35707
830.886	82.17256
831.063	81.47597
831.239	95.14773
831.415	64.1029
831.592	94.44557
831.768	72.88532
831.944	68.53026
832.12	99.11755
832.296	94.41702
832.473	83.66012
832.649	70.00361
832.825	84.79665
833.001	63.67053
833.177	78.65355
833.353	72.71632
833.529	57.35086
833.705	70.25719
833.881	58.39339
834.058	58.31993
834.234	59.95743
834.41	59.95294
834.586	54.325
834.761	58.79426
834.937	60.97333
835.113	62.06262
835.289	58.84161
835.465	62.93692
835.641	60.13047
835.817	63.14368
835.993	83.58337
836.169	61.6078
836.344	76.42464
836.52	79.74748
836.696	74.86753
836.872	68.80141
837.048	124.11656
837.223	72.11296
837.399	103.93625
837.575	87.4539
837.75	84.31695
837.926	103.55852
838.102	138.41333
838.277	124.53011
838.453	151.34685
838.628	150.12742
838.804	80.90767
838.98	132.23172
839.155	89.55424
839.331	109.10559
839.506	81.45858
839.682	86.24725
839.857	109.9123
840.033	117.1484
840.208	74.09692
840.384	56.3217
840.559	74.80405
840.734	97.20089
840.91	111.72293
841.085	78.83002
841.26	80.96269
841.436	74.88113
841.611	79.73832
841.786	101.02685
841.962	117.54503
842.137	89.72279
842.312	73.66723
842.487	83.26749
842.663	77.91561
842.838	83.15702
843.013	191.99104
843.188	109.32907
843.363	119.66312
843.538	167.54669
843.714	163.89458
843.889	169.5413
844.064	182.1757
844.239	153.24298
844.414	167.99068
844.589	123.28366
844.764	197.86409
844.939	197.2965
845.114	210.58074
845.289	204.59957
845.464	266.93223
845.639	185.93813
845.814	117.10124
845.989	125.29654
846.163	148.27978
846.338	152.56262
846.513	201.34068
846.688	146.02271
846.863	142.7198
847.038	139.53103
847.212	150.04518
847.387	152.13242
847.562	155.46098
847.737	184.45526
847.911	98.47476
848.086	102.01159
848.261	307.42497
848.435	148.89406
848.61	187.21506
848.785	111.02957
848.959	196.14965
849.134	256.63566
849.308	261.70092
849.483	158.16658
849.658	225.8911
849.832	137.46316
850.007	135.4108
850.181	285.37688
850.356	126.18628
850.53	275.44031
850.705	116.52774
850.879	82.5266
851.053	151.69243
851.228	137.9538
851.402	160.98582
851.577	210.34498
851.751	229.4452
851.925	157.3125
852.099	91.50569
852.274	130.76246
852.448	159.12803
852.622	185.72587
852.797	145.33754
852.971	146.45177
853.145	155.52105
853.319	388.8704
853.493	212.53471
853.668	138.0749
853.842	253.96367
854.016	222.36052
854.19	241.27167
854.364	161.21235
854.538	169.80326
854.712	217.87908
854.886	150.69022
855.06	142.36963
855.234	82.82849
855.408	232.73985
855.582	206.59846
855.756	199.94184
855.93	262.14888
856.104	188.20529
856.278	199.61206
856.452	162.25466
856.626	202.66153
856.8	296.09028
856.973	194.61444
857.147	184.26561
857.321	179.34134
857.495	216.70491
857.669	151.67619
857.842	137.84231
858.016	210.62391
858.19	135.17481
858.364	326.12956
858.537	145.60109
858.711	166.73457
858.885	147.32034
859.058	135.7383
859.232	96.28604
859.405	109.67404
859.579	203.36539
859.753	177.17972
859.926	138.23611
860.1	104.36531
860.273	164.35625
860.447	247.50494
860.62	143.16959
860.794	292.48252
860.967	175.59335
861.141	215.1905
861.314	298.7957
861.487	202.6541
861.661	241.78093
861.834	235.40546
862.008	217.28233
862.181	162.48351
862.354	163.79122
862.528	182.4241
862.701	140.84008
862.874	113.36815
863.047	147.90221
863.221	148.36984
863.394	88.61433
863.567	248.07839
863.74	83.8625
863.913	203.58833
864.087	179.369
864.26	208.80787
864.433	156.02138
864.606	258.72319
864.779	170.61528
864.952	100.75061
865.125	138.57311
865.298	158.1491
865.471	169.13992
865.644	291.31004
865.817	252.39531
865.99	203.29295
866.163	229.43272
866.336	146.21383
866.509	162.11031
866.682	146.31565
866.855	234.16818
867.028	119.06162
867.2	199.31529
867.373	97.14709
867.546	181.64866
867.719	294.10041
867.892	200.59914
868.064	139.00935
868.237	189.12346
868.41	161.74888
868.583	118.456
868.755	116.38383
868.928	171.08869
869.101	297.2613
869.273	227.7494
869.446	201.79138
869.619	220.54432
869.791	167.9543
869.964	223.18359
870.136	210.34453
870.309	172.96982
870.481	179.26657
870.654	101.20914
870.826	176.69375
870.999	152.43195
871.171	211.72548
871.344	146.59402
871.516	164.83879
871.689	134.50281
871.861	164.06917
872.033	133.89868
872.206	155.32114
872.378	220.20449
872.55	149.5039
872.723	115.9105
872.895	155.16272
873.067	225.03161
873.24	250.5802
873.412	142.49042
873.584	155.10061
873.756	148.3393
873.928	190.63748
874.101	194.18513
874.273	198.4182
874.445	95.993
874.617	110.32115
874.789	172.95532
874.961	154.07023
875.133	192.23335
875.305	172.06599
875.477	126.19874
875.649	108.92293
875.821	128.20148
875.993	266.34991
876.165	120.4961
876.337	187.10043
876.509	153.78243
876.681	184.82693
876.853	181.0124
877.025	182.54662
877.197	128.76485
877.369	128.31395
877.541	211.77587
877.712	90.30467
877.884	121.38
878.056	206.04062
878.228	121.70067
878.4	192.3723
878.571	120.4458
878.743	98.27124
878.915	179.50054
879.086	119.41756
879.258	138.8464
879.43	129.79701
879.601	120.39362
879.773	120.98053
879.945	56.67189
880.116	71.95297
880.288	57.17122
880.459	59.58649
880.631	53.93182
880.802	58.2311
880.974	56.9482
881.145	49.37971
881.317	55.41891
881.488	50.13291
881.66	53.40626
881.831	50.79425
882.002	57.28701
882.174	51.81098
882.345	57.19708
882.517	48.26519
882.688	61.41737
882.859	58.69123
883.03	72.73628
883.202	70.30307
883.373	68.55865
883.544	68.69081
883.715	90.05681
883.887	81.56421
884.058	75.62031
884.229	91.77507
884.4	93.06979
884.571	98.30519
884.742	94.16884
884.914	99.94672
885.085	120.51388
885.256	140.66356
885.427	118.54757
885.598	137.52295
885.769	145.65394
885.94	134.54012
886.111	107.17068
886.282	159.87141
886.453	135.59148
886.624	106.72656
886.795	151.2125
886.966	134.87012
887.136	168.78489
887.307	124.06627
887.478	192.7602
887.649	179.74799
887.82	183.56796
887.991	160.97089
888.161	194.483
888.332	192.41466
888.503	115.39612
888.674	240.0919
888.844	248.75329
889.015	209.50251
889.186	117.62946
889.356	245.29619
889.527	115.92194
889.698	388.6296
889.868	150.91691
890.039	186.72458
890.209	160.88372
890.38	212.8817
890.551	185.97622
890.721	248.66571
890.892	210.77424
891.062	152.51497
891.233	188.88792
891.403	156.78592
891.574	129.29783
891.744	158.52236
891.914	209.20793
892.085	175.13485
892.255	87.22946
892.425	244.55909
892.596	210.00381
892.766	185.78551
892.936	245.14673
893.107	218.36034
893.277	137.60655
893.447	109.06947
893.618	90.7463
893.788	144.67477
893.958	88.47286
894.128	96.51535
894.298	103.36203
894.468	128.03181
894.639	75.98416
894.809	65.61922
894.979	81.38624
895.149	91.83362
895.319	79.67463
895.489	100.77036
895.659	114.77458
895.829	87.81726
895.999	92.94377
896.169	79.15559
896.339	89.11938
896.509	146.80473
896.679	166.58885
896.849	163.52566
897.019	213.57058
897.189	166.96774
897.358	160.11564
897.528	218.4803
897.698	95.43202
897.868	207.18934
898.038	311.09296
898.208	291.75377
898.377	136.0249
898.547	300.28827
898.717	461.06897
898.886	198.13485
899.056	293.75147
899.226	426.20338
899.395	272.11496
899.565	329.07946
899.735	227.38342
899.904	369.10556
900.074	309.12189
900.244	182.63023
900.413	543.69081
900.583	160.64977
900.752	226.5976
900.922	342.48264
901.091	79.02372
901.261	303.19878
901.43	286.54639
901.599	293.4811
901.769	590.95843
901.938	332.90635
902.108	317.81823
902.277	393.51423
902.446	147.85361
902.616	160.4701
902.785	208.15146
902.954	317.00633
903.124	225.56769
903.293	185.69723
903.462	120.86868
903.631	146.2893
903.801	117.44572
903.97	77.66733
904.139	112.43409
904.308	88.42173
904.477	78.03653
904.646	61.02564
904.816	76.59809
904.985	96.7807
905.154	133.42207
