Data from WindowProjectSample_Transmission__46__00046.txt Node

Date: Sat May 03 16:39:54 EDT 2025
User: jessi
Spectrometer: SR400872
Trigger mode: 0
Integration Time (sec): 5.000010E-1
Scans to average: 6
Electric dark correction enabled: true
Nonlinearity correction enabled: true
Boxcar width: 0
XAxis mode: Wavelengths
Number of Pixels in Spectrum: 3648
>>>>>Begin Spectral Data<<<<<
184.909	180716.8322
185.132	1695.92754
185.355	-2045.20256
185.578	3256.2789
185.801	-528.01092
186.024	5969.38203
186.247	1230.95918
186.47	1178.20997
186.693	-493.57391
186.916	211.95962
187.139	10107.12128
187.362	3471.92208
187.585	2614.99459
187.808	-1477.38943
188.031	57.91767
188.254	7714.84791
188.476	566.97271
188.699	-4167.51471
188.922	-422.8737
189.145	-4368.68949
189.368	-342.12273
189.591	-985.69437
189.813	-2103.55331
190.036	4660.98908
190.259	3258.5356
190.482	2046.0789
190.705	8485.53144
190.927	-1623.41586
191.15	-1618.28212
191.373	4665.23814
191.595	-1913.28777
191.818	9112.755
192.041	-221.7387
192.263	-2218.74488
192.486	-912.44202
192.709	9031.4705
192.931	-2601.24847
193.154	-1951.39631
193.377	4595.97751
193.599	5877.50216
193.822	-1891.70466
194.044	-1872.13681
194.267	606.17565
194.489	1.78136
194.712	2157.45124
194.934	3548.58969
195.157	-7468.2813
195.379	2130.20349
195.602	5263.38809
195.824	5494.21985
196.047	-8923.93837
196.269	-10684.35085
196.492	-1062.44925
196.714	-4958.62078
196.936	4550.46579
197.159	-2486.78077
197.381	-541.98185
197.604	478.30186
197.826	-3204.78633
198.048	-1326.44799
198.271	-11949.47441
198.493	9900.88555
198.715	-2419.99455
198.938	-825.80675
199.16	-3764.77625
199.382	1803.34031
199.604	-1364.40744
199.827	-1224.97438
200.049	-4232.56734
200.271	2374.22889
200.493	-27656.97724
200.715	4438.29057
200.938	12883.47506
201.16	-232226.08986
201.382	-5739.83394
201.604	-1064.82365
201.826	-6433.3546
202.048	-6955.57584
202.27	-4324.03864
202.492	-3676.79996
202.715	-1381.97115
202.937	-3610.99981
203.159	1134.05173
203.381	-88487.71038
203.603	-890.13257
203.825	-1361.45323
204.047	2384.00086
204.269	-803.11154
204.491	7148.67861
204.713	-8533.35061
204.935	38269.36171
205.156	2065.62021
205.378	-7725.39828
205.6	-1616.76554
205.822	6236.28896
206.044	-219.1115
206.266	-1980.09689
206.488	738.12915
206.71	-517824.55375
206.932	-14284.18025
207.153	11556.10256
207.375	-2205.88212
207.597	15455.10238
207.819	1650.52468
208.041	6413.46186
208.262	644.04773
208.484	-952.36927
208.706	-938.72566
208.927	10942.22013
209.149	-8843.82672
209.371	-2649.5531
209.593	-2222.16227
209.814	-3940.22385
210.036	1955.50897
210.258	-699.09951
210.479	1826.82374
210.701	777.27753
210.922	4022.62171
211.144	-1359.24492
211.366	5694.59632
211.587	-501.74437
211.809	-3403.62849
212.03	-2190.44166
212.252	-352.27182
212.473	2880.80375
212.695	-871.51864
212.916	-942.36494
213.138	614.97917
213.359	-1150.35036
213.581	-3199.88246
213.802	-1146.64977
214.024	10533.73735
214.245	-1126.65988
214.466	-99.25387
214.688	-3783.9527
214.909	-681.195
215.131	9054.99336
215.352	-1060.24841
215.573	-255827.73763
215.795	4312.24828
216.016	-3976.13655
216.237	-511.92976
216.459	-11871.07596
216.68	-1597.70267
216.901	-1624.40113
217.122	1788.30327
217.344	-8694.56584
217.565	-1574.40829
217.786	22791.51396
218.007	841.04283
218.228	-3342.63363
218.45	-5767.96657
218.671	-1776.50929
218.892	873.28157
219.113	1745.89358
219.334	181.30493
219.555	-5979.69732
219.776	32933.57996
219.997	-6440.96393
220.219	-9144.94925
220.44	-5185.27402
220.661	-1166.62353
220.882	13430.88416
221.103	-894.58987
221.324	2309.84566
221.545	-6448.46351
221.766	-1386.34906
221.987	-403.27081
222.208	1942.28574
222.429	6407.52436
222.65	-97.13599
222.87	-709.61787
223.091	37621.56675
223.312	784.6293
223.533	-1985.89375
223.754	3537.33632
223.975	1684.04838
224.196	-699.92834
224.417	-29917.57557
224.637	-2506.48541
224.858	418.75599
225.079	3380.54642
225.3	1624.97185
225.521	3556.92695
225.741	-2458.15063
225.962	1516.1477
226.183	1148.13015
226.404	1847.75373
226.624	1856.84568
226.845	1337.15864
227.066	2449.31411
227.286	603.37185
227.507	433.85548
227.728	371.02075
227.948	545.72436
228.169	120.21061
228.389	124.8974
228.61	59.81994
228.831	83.43318
229.051	8.9754
229.272	47.26622
229.492	62.22744
229.713	20.19503
229.933	50.1838
230.154	41.08959
230.374	66.73828
230.595	53.629
230.815	36.48411
231.036	52.10056
231.256	-7.22472
231.477	105.90023
231.697	60.34604
231.917	61.94636
232.138	84.83585
232.358	164.46151
232.579	180.34293
232.799	35.57333
233.019	170.23256
233.24	228.93541
233.46	69.63169
233.68	105.87944
233.901	89.3506
234.121	37.36925
234.341	17.60343
234.561	-5.42137
234.782	33.71552
235.002	117.44356
235.222	-1.2655
235.442	91.3217
235.662	44.0839
235.883	98.77401
236.103	88.00567
236.323	66.39764
236.543	49.35233
236.763	68.55284
236.983	70.51538
237.203	76.97724
237.423	107.52275
237.643	149.48967
237.864	145.47594
238.084	31.04997
238.304	47.0697
238.524	82.1777
238.744	69.83716
238.964	113.74016
239.184	101.72667
239.404	103.61658
239.624	49.08845
239.843	95.42366
240.063	54.5493
240.283	36.09948
240.503	35.73873
240.723	34.40127
240.943	17.44099
241.163	27.00577
241.383	18.81685
241.603	7.60473
241.822	11.31737
242.042	8.33482
242.262	9.8785
242.482	12.97251
242.702	13.98141
242.921	4.03221
243.141	9.14309
243.361	8.1989
243.581	12.42107
243.8	11.22803
244.02	6.87579
244.24	14.1174
244.459	13.6396
244.679	25.21703
244.899	15.2582
245.118	20.09829
245.338	16.49402
245.558	20.64093
245.777	11.17632
245.997	13.52289
246.216	12.99209
246.436	7.29033
246.655	5.05465
246.875	3.85502
247.094	8.13161
247.314	2.87197
247.533	4.22922
247.753	5.77938
247.972	4.34901
248.192	1.70025
248.411	2.54087
248.631	5.1665
248.85	6.56083
249.07	4.46759
249.289	8.85782
249.508	7.00773
249.728	10.25365
249.947	11.06077
250.166	11.89557
250.386	7.43446
250.605	10.31435
250.824	14.84642
251.044	10.29942
251.263	35.54488
251.482	18.87138
251.701	17.41371
251.921	0.83117
252.14	5.61099
252.359	5.29791
252.578	14.57931
252.798	4.86901
253.017	13.21843
253.236	6.95034
253.455	8.59065
253.674	17.19221
253.893	7.2321
254.112	12.40603
254.331	16.49559
254.551	14.48835
254.77	6.43287
254.989	22.02789
255.208	17.72745
255.427	22.38066
255.646	18.8777
255.865	30.33473
256.084	13.39532
256.303	14.68922
256.522	20.27349
256.741	3.9502
256.96	5.3099
257.179	13.9258
257.397	16.32869
257.616	7.58987
257.835	7.81537
258.054	20.42838
258.273	13.21744
258.492	14.81835
258.711	8.671
258.93	3.94085
259.148	5.09169
259.367	5.60753
259.586	7.40441
259.805	3.31074
260.023	6.77381
260.242	5.209
260.461	3.53551
260.68	2.00937
260.898	6.09901
261.117	2.24733
261.336	1.68837
261.554	5.27274
261.773	4.95179
261.992	1.31577
262.21	4.98839
262.429	5.6147
262.648	10.12917
262.866	12.31215
263.085	6.95951
263.303	6.96073
263.522	12.51872
263.74	12.82771
263.959	20.87527
264.178	11.71455
264.396	10.16024
264.615	7.66548
264.833	17.57147
265.051	13.79902
265.27	13.17638
265.488	15.92024
265.707	9.1651
265.925	15.62644
266.144	6.73873
266.362	8.91978
266.58	9.24268
266.799	6.94183
267.017	8.92991
267.235	6.91251
267.454	4.51545
267.672	2.91347
267.89	5.60238
268.109	6.57149
268.327	6.02527
268.545	1.02764
268.763	5.39445
268.982	2.85329
269.2	7.0969
269.418	4.71105
269.636	3.29857
269.854	6.50519
270.073	5.0692
270.291	2.4827
270.509	2.84717
270.727	6.4956
270.945	9.88484
271.163	9.65588
271.381	2.05317
271.599	3.91559
271.817	7.32771
272.036	2.65434
272.254	4.35178
272.472	3.0994
272.69	3.0232
272.908	3.18143
273.126	5.62801
273.344	7.38078
273.562	2.71214
273.779	3.95993
273.997	5.22909
274.215	5.84505
274.433	4.462
274.651	6.40877
274.869	6.58607
275.087	4.05757
275.305	5.62027
275.523	3.41599
275.74	4.7093
275.958	7.44473
276.176	10.91518
276.394	3.19305
276.612	4.26797
276.829	4.31324
277.047	3.46814
277.265	3.95078
277.483	5.13702
277.7	5.54896
277.918	4.71166
278.136	8.47101
278.353	4.14156
278.571	2.02008
278.789	6.98094
279.006	1.35345
279.224	4.11923
279.442	6.89338
279.659	4.89039
279.877	3.16672
280.094	7.52375
280.312	1.70454
280.529	4.42066
280.747	0.96606
280.964	3.50565
281.182	8.13259
281.399	3.94223
281.617	4.94682
281.834	3.5599
282.052	2.82151
282.269	4.06833
282.487	3.60781
282.704	2.53418
282.921	3.38995
283.139	4.53212
283.356	5.71691
283.574	5.07024
283.791	2.58299
284.008	7.29389
284.226	3.83842
284.443	4.58193
284.66	5.6235
284.877	4.63486
285.095	3.05675
285.312	2.06574
285.529	1.56849
285.746	1.232
285.964	2.72298
286.181	1.86782
286.398	2.70598
286.615	3.64084
286.832	3.4672
287.05	1.14255
287.267	2.34335
287.484	2.71433
287.701	3.79835
287.918	3.50496
288.135	3.75648
288.352	1.79877
288.569	2.20813
288.786	3.43279
289.003	2.53014
289.22	3.58167
289.437	2.55292
289.654	4.02039
289.871	4.01181
290.088	4.00928
290.305	3.02165
290.522	2.31695
290.739	3.00401
290.956	4.38633
291.173	5.24886
291.39	4.92782
291.607	3.42586
291.824	2.406
292.04	1.69525
292.257	4.13541
292.474	4.61581
292.691	2.87011
292.908	1.3581
293.125	2.53359
293.341	1.46534
293.558	7.06076
293.775	2.78453
293.992	2.92627
294.208	1.10572
294.425	1.68203
294.642	2.48363
294.858	3.72727
295.075	1.07661
295.292	2.65645
295.508	3.31257
295.725	5.20528
295.942	2.43739
296.158	1.79105
296.375	2.8451
296.591	2.00345
296.808	2.35787
297.024	2.42821
297.241	2.94214
297.458	3.02101
297.674	0.27607
297.891	2.63811
298.107	1.98245
298.323	1.43452
298.54	3.68873
298.756	1.81506
298.973	0.82045
299.189	3.74734
299.406	1.48523
299.622	4.04643
299.838	3.78425
300.055	3.75251
300.271	0.98391
300.487	1.27535
300.704	1.61039
300.92	0.95687
301.136	5.56893
301.353	3.73357
301.569	2.69154
301.785	3.28831
302.001	3.73516
302.218	3.27471
302.434	2.94055
302.65	1.13702
302.866	2.38079
303.083	5.40279
303.299	4.88803
303.515	2.4994
303.731	2.78879
303.947	1.09815
304.163	1.53736
304.379	2.95676
304.595	3.35673
304.812	2.03188
305.028	1.69495
305.244	2.45663
305.46	3.73551
305.676	3.75216
305.892	4.45998
306.108	2.71389
306.324	2.20041
306.54	5.06987
306.756	3.68215
306.972	3.6177
307.187	2.3864
307.403	4.48658
307.619	2.16307
307.835	3.98533
308.051	4.54107
308.267	0.88326
308.483	3.95488
308.699	3.30774
308.914	2.87415
309.13	2.5496
309.346	0.98531
309.562	1.37616
309.778	0.84773
309.993	3.33031
310.209	2.51992
310.425	0.97408
310.641	2.20838
310.856	0.99128
311.072	1.17665
311.288	2.30598
311.503	2.71666
311.719	0.44798
311.935	0.21748
312.15	2.99199
312.366	2.46187
312.581	3.28085
312.797	2.71114
313.013	3.55873
313.228	2.0815
313.444	2.66052
313.659	1.90837
313.875	3.03925
314.09	2.36908
314.306	4.07227
314.521	3.62681
314.737	3.4379
314.952	2.94018
315.168	2.39044
315.383	3.41317
315.599	2.40746
315.814	2.48164
316.029	3.47899
316.245	0.90861
316.46	0.84076
316.675	4.17016
316.891	5.23412
317.106	6.02692
317.321	3.31515
317.537	3.50026
317.752	3.51389
317.967	3.80277
318.183	1.49723
318.398	2.36009
318.613	3.89782
318.828	4.49253
319.043	3.70714
319.259	2.35182
319.474	3.19961
319.689	3.93043
319.904	0.66715
320.119	3.44846
320.334	3.31322
320.549	2.37252
320.765	4.27346
320.98	2.73393
321.195	3.94902
321.41	2.36574
321.625	3.51593
321.84	4.99481
322.055	5.07548
322.27	1.86878
322.485	1.36032
322.7	2.89701
322.915	4.1827
323.13	1.51506
323.345	4.6021
323.56	3.31592
323.775	3.61392
323.989	3.31221
324.204	3.18836
324.419	3.81976
324.634	1.33735
324.849	2.56729
325.064	5.59482
325.279	4.09005
325.493	3.66972
325.708	4.2175
325.923	1.83171
326.138	1.67782
326.352	4.72571
326.567	3.95403
326.782	2.18937
326.997	1.69712
327.211	3.38966
327.426	3.22798
327.641	2.28941
327.855	0.86262
328.07	3.35173
328.285	4.91542
328.499	2.4001
328.714	3.53425
328.928	3.59236
329.143	3.01316
329.358	3.9746
329.572	4.04117
329.787	4.35914
330.001	6.03255
330.216	1.02028
330.43	4.71533
330.645	4.92794
330.859	3.67547
331.074	2.05874
331.288	2.97989
331.503	4.53059
331.717	1.47688
331.931	2.6172
332.146	2.83392
332.36	4.92616
332.575	3.4415
332.789	2.98279
333.003	2.84079
333.218	3.3807
333.432	2.28718
333.646	3.60751
333.86	4.40849
334.075	4.78739
334.289	2.25
334.503	1.91584
334.717	3.49447
334.932	3.3288
335.146	4.41049
335.36	2.62778
335.574	3.55787
335.788	3.44606
336.003	4.40211
336.217	3.6074
336.431	3.50856
336.645	2.22931
336.859	1.29585
337.073	2.66234
337.287	3.10198
337.501	1.72441
337.715	2.87922
337.929	3.48261
338.143	1.60966
338.357	2.67865
338.571	1.45123
338.785	3.15813
338.999	2.24209
339.213	2.29638
339.427	1.19768
339.641	4.10863
339.855	2.4696
340.069	2.15715
340.283	4.13728
340.497	4.88942
340.711	3.16087
340.924	2.281
341.138	1.50034
341.352	1.17566
341.566	3.02026
341.78	0.86475
341.993	2.2283
342.207	1.37115
342.421	3.08288
342.635	2.85612
342.848	1.96323
343.062	0.49026
343.276	1.88736
343.49	5.26733
343.703	1.89095
343.917	3.35793
344.131	3.63259
344.344	1.84329
344.558	2.12574
344.771	1.6779
344.985	4.2651
345.199	4.51303
345.412	2.73932
345.626	3.07496
345.839	0.78142
346.053	1.39949
346.266	1.25946
346.48	3.50816
346.693	2.99795
346.907	3.20538
347.12	1.6424
347.334	2.96112
347.547	3.06888
347.76	2.16205
347.974	3.65913
348.187	2.90883
348.401	2.35866
348.614	2.15774
348.827	2.17526
349.041	3.41004
349.254	0.76145
349.467	2.48483
349.681	0.9208
349.894	1.93466
350.107	4.29063
350.32	4.51184
350.534	0.69069
350.747	2.03373
350.96	1.5353
351.173	1.90423
351.386	2.27964
351.6	2.03501
351.813	1.48895
352.026	2.47068
352.239	1.12879
352.452	2.14313
352.665	3.32831
352.878	2.15354
353.092	5.09561
353.305	3.13438
353.518	2.63551
353.731	1.6872
353.944	3.96118
354.157	1.54895
354.37	1.40165
354.583	1.24836
354.796	0.71031
355.009	3.77974
355.222	2.44106
355.435	2.4899
355.647	3.75809
355.86	1.18969
356.073	2.27662
356.286	1.97377
356.499	3.19399
356.712	2.34668
356.925	2.7245
357.138	3.5047
357.35	1.16332
357.563	1.79815
357.776	2.50755
357.989	1.77901
358.201	2.8173
358.414	2.19056
358.627	3.40698
358.84	2.12569
359.052	1.30514
359.265	1.13306
359.478	3.45084
359.69	-0.38388
359.903	2.67531
360.116	2.86286
360.328	0.42977
360.541	3.11903
360.753	1.11154
360.966	1.45117
361.179	1.57006
361.391	1.55616
361.604	0.93356
361.816	1.53024
362.029	1.25435
362.241	1.01659
362.454	1.40367
362.666	1.00631
362.879	1.90425
363.091	1.56407
363.304	1.09802
363.516	2.09544
363.728	0.76127
363.941	2.65251
364.153	1.25824
364.366	-0.09782
364.578	1.07905
364.79	2.47498
365.003	1.70938
365.215	1.59491
365.427	2.6121
365.639	3.20604
365.852	2.22033
366.064	4.16362
366.276	1.18583
366.488	2.62257
366.701	1.55172
366.913	1.7346
367.125	1.57204
367.337	1.37942
367.549	1.58913
367.762	1.97317
367.974	2.00402
368.186	0.9186
368.398	3.16107
368.61	2.55814
368.822	2.66265
369.034	2.13397
369.246	2.65076
369.458	4.50557
369.67	1.28849
369.882	3.97314
370.094	0.24975
370.306	3.84366
370.518	1.59467
370.73	1.10624
370.942	1.32383
371.154	1.53497
371.366	1.28832
371.578	2.21135
371.79	1.03847
372.002	3.00687
372.214	3.65434
372.425	2.0804
372.637	3.10987
372.849	1.9181
373.061	-0.12302
373.273	2.25817
373.484	2.35273
373.696	2.908
373.908	0.00878
374.12	2.84375
374.331	2.4478
374.543	1.13762
374.755	0.9053
374.967	2.09761
375.178	2.74283
375.39	1.81884
375.602	2.10253
375.813	0.74395
376.025	0.55521
376.236	1.85318
376.448	1.9395
376.66	1.28037
376.871	1.33291
377.083	2.83262
377.294	2.81641
377.506	1.33431
377.717	2.84424
377.929	2.01976
378.14	1.06619
378.352	2.42345
378.563	2.30542
378.775	2.93591
378.986	1.20449
379.197	1.64633
379.409	1.56385
379.62	2.53202
379.832	2.08513
380.043	1.5566
380.254	1.92657
380.466	0.67094
380.677	4.51321
380.888	3.9738
381.1	4.1235
381.311	3.86727
381.522	1.69585
381.733	4.54637
381.945	1.66271
382.156	1.99861
382.367	1.46929
382.578	4.57678
382.789	4.46241
383.001	1.45009
383.212	2.79004
383.423	3.1846
383.634	2.79991
383.845	2.02885
384.056	1.31776
384.267	1.65057
384.478	1.59855
384.69	0.79469
384.901	2.43897
385.112	2.13339
385.323	2.90177
385.534	2.12093
385.745	2.13622
385.956	2.3157
386.167	0.8528
386.378	2.1184
386.588	0.47942
386.799	1.13885
387.01	0.22245
387.221	2.65315
387.432	1.5816
387.643	3.65065
387.854	1.62075
388.065	1.50028
388.275	1.6191
388.486	1.52073
388.697	1.55194
388.908	1.60315
389.119	3.07621
389.329	3.43977
389.54	1.73246
389.751	2.12389
389.962	2.81967
390.172	1.97006
390.383	1.23914
390.594	1.21564
390.804	1.07087
391.015	0.97986
391.226	1.7091
391.436	1.96114
391.647	2.09122
391.858	2.22325
392.068	0.15661
392.279	0.54013
392.489	1.55674
392.7	2.80285
392.91	0.69388
393.121	1.0215
393.331	2.25373
393.542	2.73116
393.752	2.15567
393.963	1.78286
394.173	1.64242
394.384	2.15021
394.594	1.46845
394.804	0.64563
395.015	1.71799
395.225	2.06095
395.436	0.67337
395.646	2.27514
395.856	0.77129
396.067	0.60618
396.277	2.75651
396.487	1.98202
396.697	1.7894
396.908	2.41141
397.118	2.56167
397.328	1.7044
397.538	2.50315
397.749	1.04631
397.959	2.52716
398.169	2.53993
398.379	0.67556
398.589	2.35365
398.8	1.86306
399.01	1.38299
399.22	1.59452
399.43	3.80918
399.64	1.24999
399.85	2.43309
400.06	1.47334
400.27	1.3012
400.48	1.85648
400.69	3.3021
400.9	1.32734
401.11	0.92951
401.32	2.70838
401.53	1.41605
401.74	3.15998
401.95	2.62665
402.16	0.67867
402.37	1.90007
402.58	1.17298
402.79	2.45579
403	2.54949
403.209	1.40806
403.419	2.46896
403.629	1.21665
403.839	2.39468
404.049	2.55337
404.258	0.95442
404.468	0.95858
404.678	2.20794
404.888	2.32973
405.097	0.9084
405.307	1.54919
405.517	2.11772
405.727	1.80686
405.936	1.3676
406.146	2.09543
406.356	2.89094
406.565	1.79941
406.775	1.06308
406.984	1.10314
407.194	3.48226
407.404	1.84494
407.613	2.13061
407.823	2.51206
408.032	2.74069
408.242	2.71635
408.451	1.48754
408.661	1.65814
408.87	3.29273
409.08	1.39277
409.289	2.24645
409.499	1.92973
409.708	1.83344
409.918	0.2097
410.127	1.80344
410.336	3.10296
410.546	2.47814
410.755	1.49419
410.964	1.39965
411.174	0.98504
411.383	2.13911
411.592	2.21671
411.802	0.91181
412.011	2.83532
412.22	1.92008
412.429	3.02954
412.639	3.10636
412.848	3.21885
413.057	3.44333
413.266	2.83761
413.475	1.80256
413.685	2.70014
413.894	2.57777
414.103	2.97499
414.312	2.65803
414.521	1.83526
414.73	2.29359
414.939	3.72958
415.148	2.38212
415.357	2.35658
415.566	1.69533
415.776	1.74419
415.985	1.45232
416.194	2.56593
416.403	3.39121
416.611	0.76246
416.82	1.33321
417.029	2.09891
417.238	1.26784
417.447	1.20326
417.656	1.45674
417.865	1.22225
418.074	1.56258
418.283	1.66016
418.492	2.34067
418.7	2.21884
418.909	2.96067
419.118	1.8303
419.327	2.16619
419.536	1.83435
419.744	1.51581
419.953	2.68733
420.162	2.5951
420.371	1.43737
420.579	1.39983
420.788	2.41939
420.997	2.63197
421.205	2.32689
421.414	2.14581
421.623	2.38824
421.831	1.70035
422.04	2.49128
422.249	1.70935
422.457	2.37239
422.666	1.70782
422.874	2.7536
423.083	2.73566
423.291	2.53484
423.5	2.20156
423.708	2.47518
423.917	2.98134
424.125	2.33348
424.334	1.91048
424.542	3.92366
424.751	3.16737
424.959	2.82363
425.167	3.37056
425.376	3.11433
425.584	2.37653
425.793	2.72453
426.001	1.7796
426.209	2.83711
426.418	1.75708
426.626	2.01896
426.834	1.83109
427.042	2.43041
427.251	1.88273
427.459	2.95021
427.667	2.37322
427.875	1.38022
428.084	1.85578
428.292	3.32929
428.5	2.8095
428.708	1.70008
428.916	1.62136
429.124	2.53356
429.333	2.18334
429.541	2.22808
429.749	2.41556
429.957	2.32179
430.165	4.17829
430.373	1.32667
430.581	2.36616
430.789	3.41132
430.997	2.0094
431.205	1.68829
431.413	2.36196
431.621	2.10687
431.829	2.92245
432.037	2.02932
432.245	2.39888
432.453	2.66215
432.661	2.25963
432.869	3.92555
433.076	1.75773
433.284	2.32598
433.492	2.8645
433.7	3.36206
433.908	2.18631
434.116	2.55823
434.323	2.66588
434.531	2.50524
434.739	2.80763
434.947	3.18521
435.154	3.22889
435.362	2.63341
435.57	2.28243
435.778	2.05234
435.985	2.7813
436.193	2.23556
436.401	3.46123
436.608	2.50235
436.816	2.13326
437.023	3.80481
437.231	3.95887
437.439	2.77616
437.646	3.08972
437.854	3.02797
438.061	3.38803
438.269	2.49215
438.476	3.22994
438.684	2.70241
438.891	2.37081
439.099	2.24534
439.306	1.67926
439.514	1.92188
439.721	2.954
439.929	1.99881
440.136	2.9891
440.343	2.80049
440.551	2.45081
440.758	4.42051
440.965	3.182
441.173	2.87391
441.38	2.33839
441.587	3.15373
441.795	2.47702
442.002	2.7755
442.209	3.03714
442.416	3.38298
442.624	3.36779
442.831	3.12766
443.038	2.40519
443.245	2.24655
443.452	2.46775
443.66	3.4168
443.867	2.3627
444.074	2.26122
444.281	2.3298
444.488	2.55358
444.695	2.80787
444.902	2.48402
445.109	3.17432
445.316	2.57349
445.523	2.51759
445.73	2.35359
445.937	3.14784
446.144	3.44535
446.351	3.6604
446.558	2.60431
446.765	3.92894
446.972	3.96503
447.179	3.20256
447.386	4.30844
447.593	2.9476
447.8	3.71466
448.007	2.94827
448.214	2.96779
448.42	2.56432
448.627	3.87243
448.834	2.85072
449.041	2.71858
449.248	2.80441
449.454	3.65766
449.661	4.21482
449.868	2.74825
450.075	2.47773
450.281	1.85077
450.488	2.24851
450.695	2.37554
450.901	2.47303
451.108	2.73639
451.315	3.65474
451.521	2.82363
451.728	3.81725
451.935	2.53471
452.141	2.84722
452.348	3.05514
452.554	2.93101
452.761	2.677
452.967	4.35309
453.174	3.30832
453.38	3.21203
453.587	2.15593
453.793	3.0948
454	3.75698
454.206	4.59816
454.413	3.80412
454.619	3.45343
454.825	2.6258
455.032	3.43377
455.238	3.80195
455.445	2.15034
455.651	3.41717
455.857	1.77391
456.064	2.94835
456.27	2.91892
456.476	2.93161
456.682	2.2253
456.889	3.35069
457.095	3.5586
457.301	4.95084
457.507	3.17629
457.714	3.14578
457.92	3.16401
458.126	2.48811
458.332	2.89215
458.538	2.79415
458.744	2.98181
458.951	2.8346
459.157	4.4706
459.363	3.26494
459.569	3.36882
459.775	4.04406
459.981	3.21503
460.187	3.64435
460.393	4.0165
460.599	4.50893
460.805	3.65643
461.011	3.32068
461.217	4.27597
461.423	4.38067
461.629	3.27644
461.835	4.0705
462.041	3.26927
462.247	4.54537
462.453	3.39632
462.658	3.21991
462.864	3.89936
463.07	3.74675
463.276	3.51071
463.482	3.61451
463.688	4.55646
463.893	2.97307
464.099	3.20432
464.305	4.62586
464.511	3.10586
464.716	3.3534
464.922	4.1145
465.128	2.81444
465.333	4.82899
465.539	4.13097
465.745	3.51225
465.95	3.66504
466.156	5.81634
466.362	4.46007
466.567	3.44924
466.773	3.46264
466.978	4.71138
467.184	2.88555
467.389	2.23672
467.595	3.92593
467.8	2.9646
468.006	4.62437
468.211	4.61885
468.417	2.96982
468.622	3.92221
468.828	4.30556
469.033	4.01383
469.239	5.93247
469.444	3.23099
469.649	4.25996
469.855	3.60834
470.06	3.88641
470.266	2.90378
470.471	4.24623
470.676	4.00827
470.881	2.46432
471.087	4.76221
471.292	5.41075
471.497	2.71181
471.703	3.6086
471.908	3.32377
472.113	3.85016
472.318	4.47098
472.523	3.13968
472.729	4.15419
472.934	4.17946
473.139	3.54488
473.344	4.29547
473.549	4.85253
473.754	3.16983
473.959	5.72851
474.164	3.39815
474.369	3.52887
474.575	4.40903
474.78	3.854
474.985	3.48418
475.19	2.58092
475.395	3.34619
475.6	3.77827
475.804	5.12123
476.009	3.85321
476.214	3.78202
476.419	3.48779
476.624	2.55907
476.829	3.48369
477.034	4.35808
477.239	3.38516
477.444	4.2584
477.648	4.3089
477.853	4.47866
478.058	3.72006
478.263	3.45172
478.468	3.32386
478.672	3.19571
478.877	5.02773
479.082	5.32294
479.287	4.23682
479.491	4.11919
479.696	3.1079
479.901	4.7375
480.105	4.47647
480.31	3.5679
480.515	3.92802
480.719	5.76378
480.924	3.5476
481.128	3.09784
481.333	4.13741
481.538	4.17856
481.742	3.5433
481.947	4.49887
482.151	4.90671
482.356	4.83885
482.56	6.08
482.765	6.57558
482.969	8.37904
483.174	9.47234
483.378	11.21394
483.582	11.2219
483.787	12.38261
483.991	12.20918
484.196	12.47531
484.4	11.95604
484.604	12.6609
484.809	10.71962
485.013	10.55888
485.217	9.38898
485.422	8.17813
485.626	7.30045
485.83	6.99921
486.034	6.7632
486.239	7.02599
486.443	7.07392
486.647	7.07986
486.851	7.98399
487.055	8.98133
487.26	8.56553
487.464	9.07509
487.668	8.39869
487.872	8.53048
488.076	9.07036
488.28	8.48276
488.484	7.86769
488.688	7.55637
488.892	7.49149
489.096	6.89934
489.3	6.26811
489.504	5.86862
489.708	5.96838
489.912	5.77798
490.116	5.64508
490.32	5.09873
490.524	5.94563
490.728	6.40755
490.932	6.56353
491.136	6.89155
491.34	7.78056
491.544	8.21827
491.748	7.68068
491.951	7.63139
492.155	7.31541
492.359	7.52676
492.563	6.02563
492.767	6.05268
492.97	5.20644
493.174	4.52665
493.378	4.57667
493.582	4.08724
493.785	4.50104
493.989	4.71591
494.193	4.70388
494.396	4.28111
494.6	5.11697
494.804	4.43473
495.007	3.92407
495.211	4.16795
495.414	4.28232
495.618	4.46443
495.822	5.243
496.025	4.40538
496.229	4.97783
496.432	4.09185
496.636	4.42037
496.839	4.40029
497.043	5.34285
497.246	4.51895
497.45	4.07609
497.653	4.52955
497.856	4.64758
498.06	3.995
498.263	4.38962
498.467	4.23868
498.67	5.27602
498.873	4.66243
499.077	4.33878
499.28	4.35642
499.483	4.70759
499.686	5.12727
499.89	4.58375
500.093	5.15099
500.296	3.99003
500.499	5.55195
500.703	4.38471
500.906	4.6042
501.109	5.80645
501.312	4.50086
501.515	4.45033
501.719	4.81065
501.922	5.50413
502.125	4.64321
502.328	4.6184
502.531	3.88577
502.734	4.73979
502.937	3.27291
503.14	4.65364
503.343	3.9826
503.546	4.47907
503.749	4.2255
503.952	4.93675
504.155	3.90975
504.358	4.95146
504.561	4.8188
504.764	3.65949
504.967	4.65133
505.17	4.58773
505.373	5.9794
505.576	4.43068
505.778	4.8976
505.981	4.09376
506.184	5.5404
506.387	3.52397
506.59	6.17713
506.793	5.52978
506.995	4.91944
507.198	3.24968
507.401	4.98669
507.604	4.87956
507.806	3.89911
508.009	4.28422
508.212	5.20554
508.414	4.18978
508.617	4.00046
508.82	4.71439
509.022	5.80461
509.225	4.97134
509.427	3.65114
509.63	5.70769
509.833	4.7157
510.035	4.40372
510.238	3.62883
510.44	5.67018
510.643	3.36212
510.845	6.24178
511.048	5.16356
511.25	4.42795
511.453	4.77601
511.655	4.93853
511.858	4.66827
512.06	5.38507
512.262	4.74594
512.465	5.49286
512.667	4.67272
512.869	4.05413
513.072	4.95163
513.274	5.31402
513.476	5.23601
513.679	5.55739
513.881	4.20713
514.083	6.08418
514.286	4.35228
514.488	4.35513
514.69	4.12698
514.892	3.85541
515.094	5.38537
515.297	4.42703
515.499	4.98772
515.701	4.24407
515.903	6.23155
516.105	6.19497
516.307	5.32881
516.509	3.42607
516.711	4.05735
516.913	5.08876
517.116	5.0584
517.318	4.57738
517.52	5.67151
517.722	5.3948
517.924	4.3205
518.126	5.34856
518.328	4.60789
518.529	5.28485
518.731	6.30696
518.933	4.66859
519.135	4.92046
519.337	6.02813
519.539	5.49543
519.741	3.91242
519.943	4.91131
520.145	4.75161
520.346	5.66672
520.548	4.82225
520.75	5.28764
520.952	4.91471
521.153	5.27133
521.355	5.48101
521.557	4.30832
521.759	5.1441
521.96	4.87435
522.162	4.23299
522.364	5.70023
522.565	4.59107
522.767	5.36998
522.969	5.89478
523.17	5.31417
523.372	5.14856
523.573	4.69647
523.775	4.9912
523.977	4.26155
524.178	6.23653
524.38	4.64183
524.581	5.69191
524.783	4.83445
524.984	5.66929
525.186	5.17009
525.387	5.50113
525.589	5.14658
525.79	4.92636
525.991	4.80915
526.193	5.59066
526.394	4.68922
526.596	5.58025
526.797	5.89371
526.998	5.46125
527.2	5.4553
527.401	7.16657
527.602	7.50536
527.803	9.52454
528.005	9.83714
528.206	10.82692
528.407	11.33296
528.608	11.01307
528.81	11.51968
529.011	10.61119
529.212	11.74274
529.413	10.59607
529.614	9.66687
529.815	9.51988
530.017	8.52035
530.218	7.41262
530.419	6.42518
530.62	6.31509
530.821	6.02783
531.022	4.81459
531.223	5.96442
531.424	6.10971
531.625	5.93559
531.826	5.62457
532.027	5.93389
532.228	7.17871
532.429	6.77449
532.63	7.00567
532.831	7.60311
533.032	7.55169
533.233	8.20942
533.433	7.91473
533.634	8.08829
533.835	7.41465
534.036	6.85684
534.237	6.52713
534.438	6.11404
534.638	5.08511
534.839	5.59828
535.04	5.91436
535.241	5.30139
535.441	6.88881
535.642	5.91781
535.843	4.9002
536.043	5.16965
536.244	5.17753
536.445	5.31126
536.645	6.20398
536.846	5.83949
537.047	6.48119
537.247	5.09446
537.448	5.71836
537.648	5.71928
537.849	5.55971
538.049	5.64972
538.25	6.04325
538.451	6.04008
538.651	4.89521
538.851	5.869
539.052	6.65043
539.252	6.23225
539.453	5.53826
539.653	5.82736
539.854	5.53448
540.054	5.82931
540.254	6.6494
540.455	7.26163
540.655	6.91716
540.855	7.9175
541.056	8.95617
541.256	8.61908
541.456	9.49507
541.657	8.64256
541.857	9.45797
542.057	7.87502
542.257	7.58263
542.458	8.24092
542.658	7.83762
542.858	6.28346
543.058	7.04101
543.258	6.39687
543.458	5.10054
543.659	5.1322
543.859	6.34605
544.059	6.28548
544.259	5.75918
544.459	6.56332
544.659	5.37354
544.859	6.13055
545.059	5.42605
545.259	6.34236
545.459	5.90561
545.659	6.52389
545.859	5.8772
546.059	5.95344
546.259	5.18705
546.459	4.83043
546.659	4.98485
546.859	6.2455
547.059	6.22775
547.258	6.22424
547.458	6.09304
547.658	5.22254
547.858	5.09548
548.058	5.97065
548.258	5.58684
548.457	4.92796
548.657	7.79791
548.857	5.46549
549.057	6.64994
549.256	6.33418
549.456	5.37689
549.656	3.79863
549.855	7.53367
550.055	5.4091
550.255	7.23191
550.454	6.18452
550.654	6.41409
550.853	7.14944
551.053	6.45084
551.253	5.97932
551.452	6.14464
551.652	4.75644
551.851	4.54098
552.051	5.4195
552.25	5.28657
552.45	5.12626
552.649	5.66561
552.849	5.22172
553.048	5.55746
553.248	6.23799
553.447	4.8941
553.646	6.50079
553.846	7.63843
554.045	6.63408
554.244	4.81955
554.444	7.45935
554.643	5.19473
554.842	7.17505
555.042	7.87227
555.241	5.15928
555.44	4.92764
555.64	6.52538
555.839	7.57637
556.038	6.28905
556.237	5.21935
556.436	6.12604
556.636	6.35132
556.835	5.21015
557.034	7.57689
557.233	5.78929
557.432	4.61309
557.631	6.87729
557.83	5.81653
558.029	5.56554
558.228	5.16306
558.427	4.98701
558.626	6.39306
558.825	4.81817
559.024	6.13156
559.223	7.60003
559.422	5.81049
559.621	6.47347
559.82	3.51519
560.019	6.02369
560.218	5.87276
560.417	2.96655
560.616	5.23318
560.815	9.28386
561.014	4.582
561.212	7.44222
561.411	6.13327
561.61	4.29422
561.809	5.61023
562.008	7.25801
562.206	5.66141
562.405	6.52051
562.604	5.67725
562.803	6.21272
563.001	5.59289
563.2	4.4561
563.399	6.54731
563.597	4.88837
563.796	6.11909
563.995	4.82569
564.193	6.64129
564.392	5.40928
564.59	8.25612
564.789	4.1804
564.988	5.28806
565.186	6.02435
565.385	5.56195
565.583	5.59888
565.782	5.82549
565.98	5.69087
566.179	5.85545
566.377	4.82474
566.575	5.19484
566.774	7.12437
566.972	6.91462
567.171	7.86207
567.369	7.31168
567.567	6.05639
567.766	6.44139
567.964	4.13925
568.162	6.55479
568.361	7.11845
568.559	5.75068
568.757	6.33458
568.956	6.18639
569.154	5.96524
569.352	6.64382
569.55	5.7824
569.748	5.93353
569.947	5.07785
570.145	5.11184
570.343	5.16885
570.541	7.11337
570.739	4.78295
570.937	6.02675
571.135	6.46927
571.333	7.67259
571.532	7.57072
571.73	6.11803
571.928	7.17544
572.126	6.47731
572.324	5.40356
572.522	7.63732
572.72	8.6805
572.918	6.07301
573.116	6.34945
573.313	6.18126
573.511	6.12567
573.709	5.52299
573.907	6.90575
574.105	5.50717
574.303	4.27723
574.501	4.55028
574.699	6.45598
574.896	6.43263
575.094	6.57743
575.292	4.68076
575.49	6.90494
575.688	5.73716
575.885	7.2726
576.083	8.38142
576.281	6.71497
576.478	5.0412
576.676	6.71157
576.874	4.38876
577.071	5.64347
577.269	8.81856
577.467	5.83926
577.664	6.13133
577.862	7.21555
578.059	5.10491
578.257	7.02411
578.455	5.88024
578.652	6.1918
578.85	3.949
579.047	6.16482
579.245	5.90228
579.442	6.01947
579.64	6.29592
579.837	4.11344
580.034	9.25282
580.232	5.88824
580.429	4.67811
580.627	6.72713
580.824	7.81897
581.021	6.38274
581.219	5.45929
581.416	5.23526
581.613	7.72123
581.811	7.87549
582.008	5.13889
582.205	7.15456
582.402	6.35829
582.6	8.00895
582.797	6.25115
582.994	6.42739
583.191	7.13612
583.388	6.21611
583.586	6.93996
583.783	7.46916
583.98	5.40972
584.177	6.93905
584.374	2.44933
584.571	6.13918
584.768	5.85639
584.965	5.52785
585.162	6.83674
585.359	8.24937
585.556	6.35996
585.753	6.48969
585.95	4.70208
586.147	5.36623
586.344	6.93483
586.541	5.95491
586.738	4.7387
586.935	6.26347
587.132	5.37736
587.329	7.64858
587.526	6.42225
587.722	12.71307
587.919	4.49487
588.116	6.54907
588.313	8.22711
588.51	9.18901
588.706	5.70501
588.903	6.7999
589.1	7.4855
589.297	9.64384
589.493	6.45898
589.69	7.3326
589.887	5.74343
590.083	4.93673
590.28	5.20166
590.477	7.14595
590.673	7.51809
590.87	8.06614
591.067	6.0257
591.263	7.07118
591.46	6.80717
591.656	5.932
591.853	8.18839
592.049	5.05356
592.246	5.69485
592.442	7.95067
592.639	7.9675
592.835	5.11397
593.032	6.93432
593.228	4.65047
593.425	4.46247
593.621	4.27512
593.817	6.53327
594.014	5.24407
594.21	6.2448
594.406	7.5604
594.603	6.74761
594.799	5.61936
594.995	3.44946
595.192	7.79775
595.388	5.69313
595.584	5.8536
595.78	4.60681
595.977	9.35156
596.173	8.39767
596.369	6.19281
596.565	5.23221
596.761	4.46821
596.957	7.78817
597.154	5.32065
597.35	5.56838
597.546	5.56897
597.742	7.1448
597.938	6.59165
598.134	5.39583
598.33	6.76787
598.526	8.29907
598.722	6.85422
598.918	9.02588
599.114	7.30695
599.31	5.25172
599.506	6.48522
599.702	5.5036
599.898	6.37924
600.094	7.68289
600.29	7.60629
600.485	7.52826
600.681	5.52739
600.877	8.84226
601.073	6.66611
601.269	9.34878
601.465	8.49199
601.66	5.32761
601.856	3.65001
602.052	8.83529
602.248	5.79561
602.443	3.76561
602.639	4.95511
602.835	5.53725
603.03	5.26972
603.226	7.48404
603.422	4.93356
603.617	6.04499
603.813	5.99449
604.009	5.67922
604.204	7.98752
604.4	4.65599
604.595	7.49389
604.791	5.04022
604.986	6.59895
605.182	5.32463
605.377	5.9531
605.573	5.76912
605.768	6.70142
605.964	7.1914
606.159	7.35129
606.355	8.01035
606.55	5.80523
606.746	7.78529
606.941	6.43067
607.136	9.50367
607.332	10.63621
607.527	4.80544
607.722	7.03271
607.918	6.01935
608.113	5.44214
608.308	7.67092
608.503	7.46443
608.699	6.83765
608.894	7.49478
609.089	5.34629
609.284	6.59012
609.479	5.8474
609.675	7.43612
609.87	5.96658
610.065	7.74383
610.26	7.87102
610.455	7.70758
610.65	6.391
610.845	6.70911
611.04	8.01249
611.235	6.43283
611.43	6.13383
611.625	4.74182
611.82	8.86116
612.015	5.56735
612.21	9.36408
612.405	4.55834
612.6	9.63427
612.795	8.86812
612.99	7.62018
613.185	5.00875
613.38	5.56579
613.575	6.78221
613.77	11.20706
613.965	4.57183
614.159	5.37067
614.354	9.12307
614.549	8.88701
614.744	7.98643
614.938	5.39707
615.133	4.75146
615.328	9.12427
615.523	8.69375
615.717	11.52174
615.912	5.66769
616.107	6.92908
616.301	6.14971
616.496	5.75477
616.691	9.75098
616.885	8.28208
617.08	11.82098
617.274	8.89256
617.469	10.69098
617.664	8.35382
617.858	6.30752
618.053	8.11039
618.247	6.79117
618.442	3.46262
618.636	9.56716
618.831	6.5566
619.025	6.28796
619.219	11.69714
619.414	1.35202
619.608	6.86051
619.803	6.38961
619.997	11.2435
620.191	9.77754
620.386	7.56519
620.58	7.31508
620.774	4.46348
620.969	4.64785
621.163	7.29148
621.357	5.24686
621.551	6.57827
621.746	7.50183
621.94	7.12672
622.134	13.69735
622.328	11.18785
622.522	4.59159
622.716	9.12016
622.911	9.12645
623.105	9.48824
623.299	7.85191
623.493	13.16975
623.687	5.73771
623.881	7.07996
624.075	8.37592
624.269	9.28378
624.463	4.30946
624.657	4.82439
624.851	8.45422
625.045	9.0406
625.239	9.37262
625.433	6.37682
625.627	10.19197
625.821	6.0979
626.015	5.78449
626.209	7.20574
626.403	5.03504
626.596	7.81421
626.79	8.4869
626.984	5.11326
627.178	8.10912
627.372	7.99101
627.565	8.81525
627.759	5.10512
627.953	5.26208
628.147	8.47713
628.34	8.2236
628.534	11.0203
628.728	6.99196
628.921	9.09664
629.115	8.81721
629.309	9.16056
629.502	9.31596
629.696	8.1765
629.89	7.41705
630.083	8.17161
630.277	8.40607
630.47	11.21448
630.664	7.08354
630.857	4.70662
631.051	10.06061
631.244	9.88101
631.438	9.57892
631.631	6.24187
631.825	10.48849
632.018	8.88661
632.212	10.95008
632.405	10.15706
632.598	6.65259
632.792	7.43646
632.985	3.80917
633.178	7.36722
633.372	7.65124
633.565	7.63518
633.758	10.6123
633.952	6.09914
634.145	6.50447
634.338	7.96095
634.531	6.38864
634.724	6.35191
634.918	7.75271
635.111	7.45677
635.304	6.78405
635.497	12.74408
635.69	8.66423
635.883	9.94584
636.077	5.78797
636.27	8.90856
636.463	8.86619
636.656	8.83629
636.849	7.27316
637.042	9.46095
637.235	11.95021
637.428	9.86143
637.621	9.97504
637.814	11.50022
638.007	11.46806
638.2	11.33338
638.393	12.02508
638.586	6.31274
638.778	7.16699
638.971	8.84654
639.164	12.3014
639.357	9.17984
639.55	12.00303
639.743	10.26414
639.935	9.77498
640.128	13.55351
640.321	9.65945
640.514	8.99605
640.707	14.87236
640.899	10.3234
641.092	5.09257
641.285	27.8741
641.477	3.64424
641.67	14.58439
641.863	12.12213
642.055	9.54812
642.248	8.78167
642.441	7.70904
642.633	10.64405
642.826	11.92516
643.018	12.54615
643.211	13.98455
643.403	13.77331
643.596	13.96919
643.788	14.63186
643.981	8.3351
644.173	11.87518
644.366	8.81535
644.558	4.56509
644.751	11.43755
644.943	6.32037
645.135	14.30958
645.328	13.42507
645.52	10.67346
645.712	12.20204
645.905	18.0951
646.097	6.64041
646.289	10.25074
646.482	15.08017
646.674	7.36307
646.866	12.09088
647.058	11.03441
647.251	6.56069
647.443	8.44473
647.635	9.36284
647.827	7.00078
648.019	7.51345
648.211	9.694
648.404	9.7874
648.596	14.61381
648.788	10.68315
648.98	10.42392
649.172	11.5385
649.364	10.58348
649.556	5.08178
649.748	16.53842
649.94	7.76528
650.132	11.30021
650.324	6.90549
650.516	8.24446
650.708	12.69016
650.9	6.41124
651.092	5.35933
651.284	5.81941
651.476	7.06321
651.667	11.14479
651.859	13.71807
652.051	9.73604
652.243	9.2609
652.435	8.20046
652.627	11.44376
652.818	10.68144
653.01	5.84348
653.202	7.73933
653.394	8.69539
653.585	10.73165
653.777	22.52993
653.969	14.43729
654.16	12.9247
654.352	7.25587
654.544	8.70915
654.735	13.65859
654.927	10.02045
655.118	14.73619
655.31	11.98145
655.502	13.56895
655.693	8.87953
655.885	11.63606
656.076	13.4597
656.268	10.45066
656.459	15.09552
656.651	14.05425
656.842	8.25816
657.034	8.49779
657.225	12.40793
657.416	13.99049
657.608	14.16274
657.799	10.88129
657.99	13.37481
658.182	8.20686
658.373	8.16135
658.564	12.33299
658.756	9.56874
658.947	9.59811
659.138	7.09617
659.33	8.46927
659.521	7.93419
659.712	9.32103
659.903	9.66348
660.094	8.49049
660.286	5.63075
660.477	15.07789
660.668	12.05486
660.859	10.50855
661.05	6.31521
661.241	12.04028
661.432	11.64641
661.623	9.03679
661.814	8.65437
662.006	5.63948
662.197	10.21503
662.388	14.24476
662.579	11.26835
662.77	14.75422
662.96	19.43766
663.151	13.11412
663.342	6.05923
663.533	12.06878
663.724	10.78466
663.915	16.59039
664.106	10.75569
664.297	16.3813
664.488	12.82122
664.678	9.63249
664.869	13.6588
665.06	14.96123
665.251	12.44438
665.442	12.637
665.632	7.85019
665.823	18.26322
666.014	3.01423
666.204	13.50741
666.395	15.02011
666.586	20.69267
666.776	15.13699
666.967	16.6002
667.158	10.41639
667.348	15.17779
667.539	7.84176
667.729	13.80936
667.92	9.35127
668.111	14.828
668.301	13.62721
668.492	10.79673
668.682	12.36819
668.873	11.68717
669.063	7.6277
669.253	12.14031
669.444	14.57533
669.634	11.1668
669.825	18.14805
670.015	15.13402
670.206	8.92839
670.396	18.31691
670.586	11.48019
670.777	13.48665
670.967	5.1159
671.157	11.3865
671.347	9.27778
671.538	17.24387
671.728	13.42283
671.918	18.6391
672.108	14.31595
672.299	10.83346
672.489	13.08507
672.679	10.74014
672.869	14.10155
673.059	17.86052
673.249	14.16125
673.44	8.36013
673.63	11.92383
673.82	15.20967
674.01	9.3494
674.2	14.48733
674.39	22.64209
674.58	14.57581
674.77	12.65269
674.96	12.73829
675.15	27.42821
675.34	17.17162
675.53	13.19985
675.72	11.79298
675.91	8.11806
676.099	19.97582
676.289	21.08234
676.479	16.15125
676.669	10.78124
676.859	14.61205
677.049	9.1357
677.238	12.83213
677.428	19.25952
677.618	14.50968
677.808	17.76054
677.997	14.48604
678.187	8.84047
678.377	12.84787
678.567	11.02987
678.756	10.71704
678.946	11.27252
679.136	7.74355
679.325	9.61252
679.515	8.92408
679.704	7.34771
679.894	14.70167
680.084	12.54524
680.273	16.13084
680.463	9.32805
680.652	9.67763
680.842	11.71662
681.031	15.64813
681.221	9.47829
681.41	13.82666
681.6	11.48342
681.789	15.47266
681.978	17.29283
682.168	14.29233
682.357	13.71959
682.547	15.7508
682.736	13.34324
682.925	17.91858
683.115	17.3476
683.304	16.60235
683.493	14.47032
683.682	14.42831
683.872	14.33778
684.061	18.21521
684.25	15.99969
684.439	22.20162
684.629	15.95384
684.818	27.99816
685.007	13.28039
685.196	12.74285
685.385	21.57381
685.574	15.76524
685.763	15.17059
685.952	14.80988
686.142	10.41075
686.331	19.21255
686.52	7.57764
686.709	21.7651
686.898	21.11784
687.087	15.93194
687.276	20.83474
687.465	19.4307
687.654	13.06875
687.842	21.05424
688.031	10.27786
688.22	20.23232
688.409	15.78663
688.598	14.74624
688.787	24.92767
688.976	15.25746
689.165	22.89213
689.353	12.94583
689.542	17.15458
689.731	18.26705
689.92	23.41983
690.108	18.73022
690.297	13.78697
690.486	15.93605
690.675	19.1668
690.863	23.18592
691.052	22.99817
691.241	16.63349
691.429	16.00222
691.618	22.43425
691.806	10.57284
691.995	14.00706
692.184	16.89812
692.372	13.15169
692.561	17.64711
692.749	15.68954
692.938	29.12193
693.126	18.87899
693.315	16.42844
693.503	20.09898
693.692	20.21929
693.88	21.64279
694.068	27.36865
694.257	16.37646
694.445	19.44381
694.634	7.35562
694.822	21.10672
695.01	23.91916
695.199	25.69524
695.387	24.54038
695.575	21.81497
695.763	17.26074
695.952	15.09591
696.14	10.40709
696.328	14.07458
696.516	17.63687
696.705	18.05418
696.893	17.82737
697.081	8.57944
697.269	20.09387
697.457	11.81579
697.645	11.16788
697.833	18.97961
698.021	12.62921
698.21	13.29327
698.398	14.55398
698.586	10.56376
698.774	10.51136
698.962	13.93885
699.15	11.36254
699.338	9.37709
699.526	16.40988
699.714	12.52773
699.901	12.38073
700.089	19.20404
700.277	12.94824
700.465	14.82079
700.653	18.50441
700.841	17.84016
701.029	11.92575
701.217	23.09553
701.404	16.68943
701.592	24.22642
701.78	27.20728
701.968	17.46698
702.155	16.09085
702.343	9.77691
702.531	24.4438
702.718	19.944
702.906	16.57833
703.094	13.7159
703.281	24.81887
703.469	18.04634
703.657	23.74666
703.844	36.75957
704.032	28.12804
704.219	16.37545
704.407	20.64051
704.595	24.67561
704.782	20.05327
704.97	15.87989
705.157	15.72121
705.345	27.33922
705.532	36.00711
705.719	21.55659
705.907	25.4047
706.094	19.95919
706.282	28.68015
706.469	18.67884
706.656	20.43041
706.844	19.02447
707.031	24.50364
707.218	20.89998
707.406	29.51386
707.593	23.97374
707.78	23.87446
707.968	18.98018
708.155	15.34624
708.342	23.47466
708.529	24.60411
708.716	22.05528
708.904	30.98183
709.091	23.97014
709.278	14.42019
709.465	31.42055
709.652	29.54257
709.839	28.08644
710.026	22.39369
710.213	11.81356
710.4	21.34688
710.587	25.58221
710.774	28.97847
710.961	27.48911
711.148	21.09452
711.335	26.72306
711.522	20.86964
711.709	23.62307
711.896	33.00953
712.083	25.79577
712.27	16.52761
712.457	21.9139
712.644	12.84255
712.831	32.97556
713.017	22.32147
713.204	25.53624
713.391	18.00408
713.578	29.02344
713.765	31.72652
713.951	25.70503
714.138	42.48374
714.325	26.07731
714.512	23.44319
714.698	17.34546
714.885	32.22846
715.072	25.84091
715.258	23.02017
715.445	19.22132
715.631	30.21603
715.818	8.95204
716.005	20.02682
716.191	26.36716
716.378	20.81011
716.564	29.20062
716.751	18.28405
716.937	20.96381
717.124	31.07337
717.31	19.01413
717.497	35.90283
717.683	19.9299
717.869	39.59646
718.056	22.2184
718.242	27.91816
718.429	24.07764
718.615	16.32766
718.801	25.28475
718.988	29.13578
719.174	29.48971
719.36	23.70792
719.547	32.77441
719.733	27.48799
719.919	28.15799
720.105	32.69613
720.291	24.2734
720.478	27.76674
720.664	25.16203
720.85	20.34631
721.036	48.31829
721.222	35.92029
721.408	25.70021
721.595	39.94364
721.781	39.53505
721.967	35.75425
722.153	37.30778
722.339	31.15293
722.525	30.1019
722.711	19.794
722.897	16.56533
723.083	24.39692
723.269	35.85372
723.455	46.46378
723.641	52.23928
723.827	29.3374
724.012	29.8791
724.198	26.62112
724.384	38.01511
724.57	31.02567
724.756	16.40731
724.942	13.22583
725.127	37.37441
725.313	37.53758
725.499	38.47408
725.685	41.55283
725.87	30.20388
726.056	22.11214
726.242	37.05808
726.428	17.20376
726.613	36.91671
726.799	23.91206
726.985	18.41082
727.17	16.25656
727.356	42.5432
727.541	20.96105
727.727	25.30695
727.913	33.08692
728.098	23.50419
728.284	32.63463
728.469	17.03801
728.655	21.83829
728.84	35.3298
729.026	32.50937
729.211	35.65377
729.397	30.74035
729.582	33.32066
729.767	27.69936
729.953	32.64742
730.138	36.66041
730.323	10.02635
730.509	19.03437
730.694	38.89305
730.879	31.07185
731.065	29.5765
731.25	46.68448
731.435	33.26178
731.621	16.43327
731.806	23.90878
731.991	31.62988
732.176	17.53494
732.361	39.48961
732.547	33.14178
732.732	15.98822
732.917	48.75524
733.102	19.78954
733.287	21.84789
733.472	29.10704
733.657	30.59392
733.842	16.31885
734.027	25.87426
734.212	27.34052
734.397	21.73893
734.582	31.01109
734.767	36.07654
734.952	40.99693
735.137	9.55099
735.322	43.30639
735.507	31.40355
735.692	29.3483
735.877	50.99956
736.062	47.59953
736.247	32.59196
736.431	27.7304
736.616	42.78428
736.801	32.82451
736.986	29.38984
737.171	24.23645
737.355	17.55472
737.54	41.57113
737.725	31.83194
737.909	56.25932
738.094	27.55952
738.279	38.13643
738.463	28.05473
738.648	37.79155
738.833	33.67446
739.017	50.78638
739.202	26.32787
739.386	31.61679
739.571	22.60309
739.756	37.50816
739.94	32.07019
740.125	38.84319
740.309	25.47122
740.494	35.76538
740.678	31.94557
740.863	35.36362
741.047	33.43687
741.231	44.15905
741.416	24.76446
741.6	47.37796
741.785	24.17526
741.969	41.95246
742.153	45.66705
742.338	12.3888
742.522	30.97392
742.706	40.24153
742.89	19.48204
743.075	35.57348
743.259	44.89492
743.443	43.1367
743.627	45.21341
743.812	54.05017
743.996	9.22768
744.18	31.54998
744.364	25.42602
744.548	62.6983
744.732	31.49703
744.916	40.63567
745.1	40.72342
745.285	30.47087
745.469	38.52245
745.653	54.17393
745.837	21.4766
746.021	57.08504
746.205	45.31562
746.389	36.60895
746.573	29.62028
746.757	51.15474
746.94	30.60534
747.124	46.29108
747.308	21.92273
747.492	46.4162
747.676	26.03153
747.86	59.91037
748.044	31.17182
748.227	18.04799
748.411	81.01362
748.595	40.45711
748.779	24.84265
748.963	38.70709
749.146	36.1465
749.33	28.22519
749.514	24.83715
749.697	47.94205
749.881	29.01618
750.065	21.65079
750.248	35.65731
750.432	61.89332
750.616	36.74898
750.799	22.27103
750.983	58.89129
751.166	66.58821
751.35	18.63252
751.533	41.37792
751.717	50.74025
751.9	51.67765
752.084	28.51195
752.267	22.4729
752.451	25.38676
752.634	36.50941
752.818	41.23374
753.001	44.73998
753.184	48.81404
753.368	39.71396
753.551	1.30554
753.734	27.5202
753.918	61.64558
754.101	28.6224
754.284	45.12929
754.467	29.78
754.651	28.5385
754.834	30.07968
755.017	50.70371
755.2	49.7191
755.384	20.52498
755.567	43.56706
755.75	52.16237
755.933	33.60531
756.116	40.90512
756.299	30.3295
756.482	27.91034
756.665	45.23637
756.848	42.41783
757.032	45.3813
757.215	21.54734
757.398	24.57538
757.581	26.21183
757.764	68.20654
757.947	36.60003
758.129	50.29346
758.312	2.29089
758.495	33.61421
758.678	34.58148
758.861	35.33707
759.044	61.87215
759.227	28.23489
759.41	24.01408
759.592	46.12784
759.775	36.68127
759.958	47.95091
760.141	21.6588
760.324	63.57069
760.506	54.0735
760.689	45.42026
760.872	66.50049
761.054	42.51658
761.237	32.14648
761.42	46.19123
761.602	49.00143
761.785	39.27553
761.968	50.51641
762.15	60.73275
762.333	32.60055
762.515	40.72757
762.698	27.71305
762.88	42.73145
763.063	38.16614
763.245	42.40424
763.428	23.59499
763.61	24.27987
763.793	19.31184
763.975	34.99328
764.158	27.6923
764.34	27.64272
764.522	21.6172
764.705	30.75338
764.887	50.36436
765.069	18.07209
765.252	42.03425
765.434	43.52935
765.616	34.56846
765.799	27.37699
765.981	42.79063
766.163	25.44601
766.345	48.86984
766.528	27.90145
766.71	10.21442
766.892	38.5254
767.074	51.36566
767.256	33.86862
767.438	58.16693
767.62	42.83592
767.802	70.3118
767.985	50.07476
768.167	64.90983
768.349	31.14346
768.531	51.79676
768.713	43.00139
768.895	58.7073
769.077	45.8021
769.259	82.57172
769.441	113.29275
769.623	55.66405
769.804	65.35116
769.986	68.78544
770.168	87.33784
770.35	101.99133
770.532	76.26598
770.714	77.26307
770.896	84.56666
771.077	32.92667
771.259	85.4099
771.441	79.59264
771.623	87.81105
771.804	117.63562
771.986	28.45171
772.168	53.55156
772.35	89.73936
772.531	123.84102
772.713	68.0057
772.894	88.03705
773.076	59.02748
773.258	48.85456
773.439	93.65454
773.621	101.03552
773.802	34.16251
773.984	63.2859
774.166	70.58917
774.347	112.08787
774.529	88.88462
774.71	20.29879
774.891	61.26839
775.073	68.72442
775.254	116.4552
775.436	51.69661
775.617	114.3911
775.799	57.13095
775.98	115.49846
776.161	113.7007
776.343	92.6743
776.524	64.39916
776.705	56.75454
776.886	29.96902
777.068	69.71223
777.249	135.21586
777.43	114.2275
777.611	44.83847
777.793	62.74458
777.974	108.92062
778.155	61.01542
778.336	50.71176
778.517	115.15287
778.698	51.84518
778.879	21.74907
779.061	3.36309
779.242	87.91244
779.423	75.49039
779.604	50.70115
779.785	65.29129
779.966	77.30694
780.147	97.30934
780.328	95.80658
780.509	130.68936
780.69	89.93411
780.871	60.08102
781.051	26.30989
781.232	70.7475
781.413	77.13057
781.594	52.68224
781.775	57.0347
781.956	54.75327
782.137	26.97036
782.317	48.26355
782.498	77.13358
782.679	75.86557
782.86	72.17478
783.04	54.38132
783.221	72.91139
783.402	118.84868
783.583	73.3443
783.763	90.71045
783.944	55.58895
784.124	32.97122
784.305	115.72256
784.486	86.40793
784.666	66.196
784.847	30.57859
785.027	165.15169
785.208	47.94963
785.388	51.58919
785.569	47.92222
785.749	62.23659
785.93	50.41195
786.11	28.68946
786.291	78.0638
786.471	79.7011
786.652	89.69133
786.832	61.05848
787.012	75.06668
787.193	37.44715
787.373	66.52663
787.553	59.48844
787.734	73.03789
787.914	57.66197
788.094	81.0792
788.275	70.89858
788.455	53.61666
788.635	29.22888
788.815	69.17984
788.995	40.01975
789.176	35.76723
789.356	47.06015
789.536	60.46728
789.716	76.549
789.896	45.14384
790.076	57.10946
790.256	74.61843
790.436	14.57445
790.616	43.58612
790.796	73.15743
790.976	54.91034
791.156	58.25363
791.336	84.46786
791.516	75.34231
791.696	57.75759
791.876	31.12101
792.056	71.42187
792.236	94.38054
792.416	87.7591
792.596	82.91772
792.776	83.13091
792.956	79.57072
793.135	111.33001
793.315	42.80656
793.495	101.69379
793.675	83.97793
793.854	90.7262
794.034	91.4918
794.214	36.58434
794.394	87.65362
794.573	97.25044
794.753	67.51091
794.933	53.81503
795.112	72.70659
795.292	88.65107
795.472	115.7509
795.651	37.29375
795.831	72.5575
796.01	53.87116
796.19	62.63905
796.369	58.40444
796.549	79.0283
796.728	58.79151
796.908	36.70713
797.087	44.03494
797.267	67.29912
797.446	40.63451
797.626	73.94504
797.805	73.99254
797.984	44.59255
798.164	75.23834
798.343	44.77237
798.522	74.76265
798.702	65.38667
798.881	38.75556
799.06	61.04904
799.239	25.46675
799.419	41.20368
799.598	107.29614
799.777	85.17156
799.956	96.08497
800.136	58.84358
800.315	48.53593
800.494	75.45506
800.673	91.04563
800.852	89.65078
801.031	100.8359
801.21	80.85149
801.389	50.32934
801.568	77.84965
801.747	124.52097
801.926	58.34707
802.105	104.36474
802.284	62.38735
802.463	103.41838
802.642	75.73811
802.821	74.6745
803	101.01862
803.179	90.24673
803.358	103.23057
803.537	54.38317
803.716	92.48669
803.895	49.19526
804.073	59.91595
804.252	59.84296
804.431	83.17423
804.61	79.66313
804.789	98.00587
804.967	66.12285
805.146	52.98108
805.325	133.81672
805.503	84.72294
805.682	37.24886
805.861	146.00511
806.039	104.59655
806.218	47.47685
806.397	79.06779
806.575	77.62656
806.754	72.02609
806.932	53.88876
807.111	126.77921
807.289	96.5091
807.468	82.02212
807.646	94.95116
807.825	78.70471
808.003	81.78461
808.182	94.3427
808.36	75.45182
808.539	53.55658
808.717	111.52784
808.895	52.42901
809.074	75.75351
809.252	63.81532
809.43	106.32532
809.609	116.89036
809.787	135.61734
809.965	61.90047
810.144	74.66623
810.322	52.49977
810.5	99.62241
810.678	73.92332
810.856	141.03946
811.035	99.60037
811.213	111.43217
811.391	101.4605
811.569	78.20554
811.747	181.18945
811.925	116.65212
812.103	66.89405
812.281	58.88958
812.459	156.48731
812.637	121.53032
812.816	120.94559
812.994	141.9895
813.171	108.76551
813.349	104.61803
813.527	125.19928
813.705	121.5288
813.883	134.89313
814.061	123.88047
814.239	145.93663
814.417	144.30792
814.595	97.22901
814.773	97.84696
814.95	87.30163
815.128	96.11411
815.306	69.15236
815.484	80.43536
815.662	53.40522
815.839	50.54634
816.017	64.99903
816.195	114.51193
816.372	73.90241
816.55	122.55735
816.728	124.55236
816.905	77.6219
817.083	119.15154
817.261	85.70379
817.438	181.41901
817.616	144.39508
817.793	73.26967
817.971	104.29855
818.148	99.6721
818.326	122.4341
818.503	98.0788
818.681	135.73812
818.858	68.50225
819.036	83.82412
819.213	92.95619
819.391	58.55897
819.568	53.45372
819.745	44.5433
819.923	87.46382
820.1	52.46748
820.277	48.53134
820.455	61.47019
820.632	63.72732
820.809	66.9775
820.986	38.7942
821.164	30.24577
821.341	24.30364
821.518	37.79275
821.695	25.24938
821.872	23.5031
822.05	19.49716
822.227	14.97987
822.404	16.5307
822.581	19.93691
822.758	16.13501
822.935	16.70667
823.112	19.68057
823.289	16.0982
823.466	20.63866
823.643	19.13005
823.82	24.12641
823.997	21.22015
824.174	26.56528
824.351	35.66012
824.528	34.86461
824.705	32.54045
824.882	34.86903
825.059	47.23177
825.236	31.21715
825.412	31.69438
825.589	41.84451
825.766	58.89024
825.943	35.17124
826.12	43.5346
826.296	26.99161
826.473	36.29116
826.65	35.75141
826.827	45.75672
827.003	27.55952
827.18	31.41772
827.357	36.02183
827.533	30.62546
827.71	15.53361
827.887	26.73432
828.063	33.1217
828.24	27.98301
828.416	39.59404
828.593	30.94587
828.769	46.92693
828.946	54.55966
829.122	57.83983
829.299	59.65692
829.475	27.09314
829.652	56.66509
829.828	97.37851
830.005	56.69463
830.181	82.70799
830.357	58.16021
830.534	83.59041
830.71	67.46448
830.886	92.47378
831.063	83.13587
831.239	117.07714
831.415	47.3474
831.592	112.90656
831.768	61.55615
831.944	50.40239
832.12	116.27369
832.296	111.34509
832.473	88.05689
832.649	58.75625
832.825	81.2692
833.001	42.17179
833.177	66.78337
833.353	59.09723
833.529	29.47051
833.705	47.20976
833.881	31.6508
834.058	30.18829
834.234	33.1887
834.41	34.37131
834.586	25.14119
834.761	29.93673
834.937	36.93443
835.113	40.96227
835.289	35.47155
835.465	46.92316
835.641	37.6241
835.817	44.61376
835.993	87.95779
836.169	39.50811
836.344	67.09021
836.52	74.87284
836.696	85.1815
836.872	47.89823
837.048	186.4634
837.223	64.25081
837.399	153.99229
837.575	132.02351
837.75	110.14578
837.926	165.01666
838.102	258.27757
838.277	175.80222
838.453	284.1848
838.628	263.36428
838.804	93.73733
838.98	243.70274
839.155	135.14884
839.331	150.78069
839.506	116.48921
839.682	100.87607
839.857	139.19091
840.033	148.49137
840.208	66.70361
840.384	35.94984
840.559	70.59195
840.734	117.77981
840.91	156.14958
841.085	101.41958
841.26	105.35591
841.436	106.9837
841.611	81.19928
841.786	136.01453
841.962	214.84574
842.137	131.99863
842.312	76.25495
842.487	132.82614
842.663	89.51372
842.838	116.78486
843.013	538.53292
843.188	290.32912
843.363	176.37656
843.538	492.00891
843.714	500.25931
843.889	490.48138
844.064	507.84282
844.239	268.00569
844.414	543.23056
844.589	298.47322
844.764	694.63359
844.939	473.90638
845.114	432.95934
845.289	658.97635
845.464	772.66453
845.639	718.06791
845.814	206.13887
845.989	451.36016
846.163	419.55871
846.338	708.55247
846.513	627.90136
846.688	354.32756
846.863	734.07466
847.038	396.61102
847.212	350.4961
847.387	768.042
847.562	403.54375
847.737	571.98342
847.911	237.40775
848.086	253.58334
848.261	453.55579
848.435	355.23302
848.61	543.63467
848.785	232.77819
848.959	518.32391
849.134	635.34532
849.308	1106.00697
849.483	661.86624
849.658	653.79788
849.832	386.26251
850.007	218.67355
850.181	1056.82056
850.356	673.00225
850.53	982.6717
850.705	430.45097
850.879	192.77522
851.053	468.56859
851.228	396.83893
851.402	827.02915
851.577	634.77403
851.751	863.12538
851.925	434.80795
852.099	207.84718
852.274	281.03658
852.448	384.37622
852.622	1016.10133
852.797	350.75233
852.971	464.41398
853.145	854.68707
853.319	970.79048
853.493	1181.94446
853.668	481.30507
853.842	1538.24861
854.016	1063.77433
854.19	1597.09801
854.364	607.22513
854.538	632.45694
854.712	750.87815
854.886	386.09927
855.06	370.30971
855.234	203.4771
855.408	851.22811
855.582	563.9599
855.756	925.82232
855.93	540.46128
856.104	711.5284
856.278	795.94931
856.452	358.15747
856.626	643.70351
856.8	1130.4233
856.973	1196.57472
857.147	1046.73325
857.321	1469.79045
857.495	552.87962
857.669	786.19356
857.842	624.40831
858.016	516.5353
858.19	350.91499
858.364	1282.19267
858.537	544.81518
858.711	1223.70493
858.885	922.89233
859.058	263.65555
859.232	263.11812
859.405	369.18007
859.579	784.79215
859.753	697.44051
859.926	872.07534
860.1	485.8132
860.273	1044.44948
860.447	856.33145
860.62	638.58471
860.794	827.59517
860.967	637.45368
861.141	560.89431
861.314	743.78852
861.487	664.84676
861.661	505.32137
861.834	842.17653
862.008	1091.24675
862.181	808.72961
862.354	1477.86803
862.528	643.70876
862.701	409.81633
862.874	367.56256
863.047	428.80803
863.221	526.14093
863.394	323.65858
863.567	466.27743
863.74	139.48605
863.913	957.75619
864.087	628.14043
864.26	626.82688
864.433	677.31062
864.606	1027.10123
864.779	1608.33746
864.952	292.95199
865.125	1004.84808
865.298	549.37032
865.471	600.85124
865.644	1002.68018
865.817	575.00064
865.99	958.62888
866.163	847.62768
866.336	428.9222
866.509	373.91938
866.682	579.13579
866.855	1266.44352
867.028	193.59107
867.2	603.69513
867.373	101.12262
867.546	459.92587
867.719	1253.89464
867.892	642.92922
868.064	406.51798
868.237	434.58593
868.41	485.57142
868.583	302.98273
868.755	289.97614
868.928	644.87342
869.101	907.10886
869.273	1741.02709
869.446	462.94642
869.619	903.29931
869.791	519.08409
869.964	717.96865
870.136	1050.20915
870.309	385.41069
870.481	354.36933
870.654	348.03693
870.826	396.29577
870.999	324.39264
871.171	528.38629
871.344	278.01638
871.516	426.20902
871.689	414.6067
871.861	530.03796
872.033	334.92937
872.206	348.72706
872.378	474.03396
872.55	457.18533
872.723	404.01256
872.895	646.72925
873.067	553.73274
873.24	480.38684
873.412	416.36851
873.584	362.9113
873.756	606.67656
873.928	761.91354
874.101	364.30029
874.273	543.55178
874.445	156.01827
874.617	319.82627
874.789	355.71886
874.961	348.29531
875.133	456.51543
875.305	520.17979
875.477	419.02512
875.649	189.10524
875.821	302.13308
875.993	712.7691
876.165	373.4924
876.337	503.68027
876.509	504.2444
876.681	432.01361
876.853	441.87327
877.025	684.11347
877.197	234.87179
877.369	269.06676
877.541	405.1511
877.712	91.51249
877.884	172.10202
878.056	477.31458
878.228	213.66251
878.4	487.68971
878.571	225.0538
878.743	160.48152
878.915	300.65525
879.086	151.77309
879.258	194.64121
879.43	179.14539
879.601	150.1045
879.773	138.53763
879.945	29.39363
880.116	52.12272
880.288	30.04153
880.459	33.0752
880.631	23.95373
880.802	27.72369
880.974	26.5776
881.145	17.24155
881.317	26.32189
881.488	18.63166
881.66	21.29756
881.831	19.12007
882.002	26.61165
882.174	19.14321
882.345	25.79129
882.517	12.7431
882.688	32.56359
882.859	23.87894
883.03	45.05649
883.202	42.64711
883.373	35.44973
883.544	35.55123
883.715	65.66717
883.887	58.22848
884.058	50.42392
884.229	71.59395
884.4	68.88109
884.571	92.00034
884.742	67.9112
884.914	77.4407
885.085	126.21121
885.256	159.43724
885.427	134.00014
885.598	154.40386
885.769	174.90576
885.94	156.01522
886.111	83.28246
886.282	178.70669
886.453	188.94947
886.624	151.93986
886.795	241.18408
886.966	198.23535
887.136	240.46874
887.307	179.71305
887.478	395.10656
887.649	332.13219
887.82	362.53174
887.991	233.85912
888.161	419.62258
888.332	360.30064
888.503	222.83116
888.674	447.56961
888.844	709.23948
889.015	606.54668
889.186	336.65835
889.356	600.64371
889.527	318.35037
889.698	1019.22684
889.868	290.11987
890.039	553.89564
890.209	349.14075
890.38	613.011
890.551	443.41717
890.721	761.56842
890.892	492.98321
891.062	1089.29151
891.233	528.53158
891.403	754.96843
891.574	479.5252
891.744	381.98047
891.914	354.94081
892.085	524.55563
892.255	83.40404
892.425	546.96583
892.596	384.49489
892.766	486.86433
892.936	768.19996
893.107	430.71134
893.277	206.94039
893.447	183.06317
893.618	112.05077
893.788	232.26963
893.958	122.67927
894.128	91.70588
894.298	119.64878
894.468	144.49348
894.639	70.9976
894.809	31.00685
894.979	66.29907
895.149	90.72528
895.319	70.30933
895.489	91.27801
895.659	141.12602
895.829	83.95355
895.999	87.91973
896.169	78.10457
896.339	113.44513
896.509	238.87727
896.679	228.95956
896.849	237.07303
897.019	333.6147
897.189	331.083
897.358	266.53411
897.528	509.87689
897.698	191.40668
897.868	338.68919
898.038	847.81067
898.208	932.90984
898.377	260.03864
898.547	1826.12324
898.717	3241.14783
898.886	869.72513
899.056	758.22402
899.226	2063.33424
899.395	2212.03619
899.565	2446.85858
899.735	3972.57778
899.904	1620.75683
900.074	5885.05177
900.244	620.10331
900.413	3238.50661
900.583	713.14527
900.752	-1888.7756
900.922	1007.38844
901.091	186.68209
901.261	2185.25036
901.43	1146.32517
901.599	3158.83543
901.769	2835.33144
901.938	2599.63856
902.108	979.44706
902.277	1446.26114
902.446	437.0039
902.616	614.55419
902.785	559.74926
902.954	824.43105
903.124	458.31649
903.293	353.15756
903.462	141.16372
903.631	211.50466
903.801	154.47303
903.97	69.86805
904.139	114.21753
904.308	83.33765
904.477	75.19373
904.646	41.01517
904.816	59.20104
904.985	99.87987
905.154	159.29748
