Data from WindowProjectSample_Transmission__71__00071.txt Node

Date: Sat May 03 17:54:11 EDT 2025
User: jessi
Spectrometer: SR400872
Trigger mode: 0
Integration Time (sec): 5.000010E-1
Scans to average: 6
Electric dark correction enabled: true
Nonlinearity correction enabled: true
Boxcar width: 0
XAxis mode: Wavelengths
Number of Pixels in Spectrum: 3648
>>>>>Begin Spectral Data<<<<<
184.909	3219.14988
185.132	3997.50752
185.355	-3992.34266
185.578	3960.10422
185.801	-400.11155
186.024	-4569.02317
186.247	1534.25003
186.47	503.73405
186.693	-103.50389
186.916	4499.4837
187.139	3070.87894
187.362	-1808.32791
187.585	5927.89562
187.808	27919.41649
188.031	135.32932
188.254	-4224.31013
188.476	684.13573
188.699	3417.36831
188.922	-173.92284
189.145	-6961.57776
189.368	-386.80097
189.591	-754.87821
189.813	-3039.16979
190.036	917.56827
190.259	-8475.70122
190.482	1396.50928
190.705	3979.51879
190.927	-1870.23866
191.15	-6818.05367
191.373	6071.34809
191.595	-1160.39607
191.818	1989.80347
192.041	-553.84879
192.263	1901.61877
192.486	-2624.46108
192.709	-22522.83877
192.931	1748.20084
193.154	-3675.71022
193.377	-2249.75465
193.599	4157.61374
193.822	1657.82245
194.044	5523.50108
194.267	780.99924
194.489	105.91864
194.712	2556.24679
194.934	8286.86811
195.157	-23111.73343
195.379	2309.84738
195.602	1661.03643
195.824	1482.84963
196.047	40878.98481
196.269	3238.65263
196.492	-1803.38278
196.714	-1306.47859
196.936	1891.41644
197.159	-11746.84109
197.381	-380.7443
197.604	-4232.61765
197.826	-16740.96996
198.048	10299.92088
198.271	-8526.19
198.493	4548.89124
198.715	3417.39464
198.938	-737.21177
199.16	-18237.11591
199.382	1169.6693
199.604	-1680.73304
199.827	-3398.29308
200.049	2169.35619
200.271	-7036.98549
200.493	-47744.65958
200.715	3544.99011
200.938	-2899.95815
201.16	-2719.73017
201.382	-1624.69354
201.604	-3246.19734
201.826	3366.85402
202.048	3276.36312
202.27	-1057.39868
202.492	-3520.1635
202.715	-1278.62604
202.937	-16657.24843
203.159	2437.19717
203.381	2094.01781
203.603	-2951.69152
203.825	-827.42031
204.047	55332.09548
204.269	-1236.69863
204.491	-1113.09692
204.713	64863.55987
204.935	-3200.84223
205.156	-915.81273
205.378	-4473.4032
205.6	-1211.86688
205.822	2424.7643
206.044	-475.11301
206.266	5930.85394
206.488	943.38877
206.71	3412.33752
206.932	1535.10415
207.153	-1575.70421
207.375	-2672.41374
207.597	3754.19241
207.819	28038.43036
208.041	3961.40659
208.262	-1608.39492
208.484	-1112.57718
208.706	-1510.93165
208.927	3083.4582
209.149	4841.21081
209.371	-5171.19181
209.593	354.5016
209.814	-29807.765
210.036	2523.16277
210.258	-760.72749
210.479	4116.17964
210.701	-3485.58813
210.922	-11116.2098
211.144	-866.68605
211.366	5017.88817
211.587	-2182.61065
211.809	-4864.87652
212.03	-850.69509
212.252	-684.92661
212.473	3342.62538
212.695	-578.46218
212.916	-862.02357
213.138	641.70296
213.359	-1416.90768
213.581	12091.10426
213.802	-2136.99689
214.024	-2423.92909
214.245	-6232.39576
214.466	-399.58526
214.688	-2898.80111
214.909	-19021.94654
215.131	-4464.95179
215.352	-1843.46968
215.573	11257.23127
215.795	1619.43458
216.016	6439.87107
216.237	-482.25236
216.459	6892.56165
216.68	-3226.74967
216.901	-2653.52303
217.122	-2083.36628
217.344	-7155.0213
217.565	-2887.221
217.786	2113.54222
218.007	1553.81685
218.228	-581.3818
218.45	-4279.89855
218.671	1518.01648
218.892	3757.74455
219.113	1568.24654
219.334	114.57333
219.555	-7068.54527
219.776	12171.90677
219.997	4106.54503
220.219	2073.58459
220.44	1144.95012
220.661	1104.0086
220.882	-2700.07296
221.103	-1088.3401
221.324	2424.696
221.545	3060.80088
221.766	-3476.81553
221.987	-440.12178
222.208	-9700.40598
222.429	178780.68
222.65	-364.52204
222.87	-9982.82469
223.091	2468.74252
223.312	-1303.55623
223.533	2232.41744
223.754	2035.03425
223.975	2803.58093
224.196	-5934.6574
224.417	-2709.37566
224.637	8966.9466
224.858	1215.33461
225.079	1364.98816
225.3	1067.10119
225.521	5003.76248
225.741	942.59287
225.962	1150.08948
226.183	-568.07494
226.404	1446.0358
226.624	1125.6532
226.845	1581.91376
227.066	911.31867
227.286	538.03721
227.507	216.32119
227.728	196.30683
227.948	281.14852
228.169	95.2138
228.389	93.85821
228.61	44.38385
228.831	65.05288
229.051	6.8775
229.272	38.35761
229.492	50.86865
229.713	14.18065
229.933	39.73921
230.154	32.19483
230.374	52.86385
230.595	39.7524
230.815	27.87579
231.036	39.82953
231.256	-8.9617
231.477	77.326
231.697	43.66837
231.917	44.4529
232.138	63.42136
232.358	135.96735
232.579	125.7742
232.799	19.31187
233.019	115.87994
233.24	142.89873
233.46	46.46641
233.68	75.47453
233.901	59.12
234.121	31.47084
234.341	12.27982
234.561	1.51744
234.782	26.19546
235.002	79.89357
235.222	-4.50182
235.442	65.94929
235.662	33.66034
235.883	71.02873
236.103	64.80515
236.323	47.94991
236.543	29.32109
236.763	48.07628
236.983	51.85919
237.203	51.81083
237.423	74.41448
237.643	102.39438
237.864	89.19455
238.084	28.52983
238.304	36.27542
238.524	57.90933
238.744	46.89393
238.964	78.02201
239.184	68.44006
239.404	75.47975
239.624	36.76007
239.843	66.18882
240.063	38.87926
240.283	23.95567
240.503	27.79351
240.723	27.10858
240.943	14.46635
241.163	19.97018
241.383	15.88083
241.603	7.10933
241.822	9.31541
242.042	6.60461
242.262	8.45964
242.482	9.46731
242.702	11.21223
242.921	3.26077
243.141	8.25024
243.361	6.61436
243.581	10.56436
243.8	8.46606
244.02	5.67662
244.24	10.69474
244.459	11.05178
244.679	20.10638
244.899	13.86822
245.118	15.59263
245.338	13.16534
245.558	16.65435
245.777	9.03576
245.997	10.4859
246.216	10.69323
246.436	6.14414
246.655	4.56331
246.875	3.17319
247.094	6.63433
247.314	2.24221
247.533	3.40645
247.753	5.06074
247.972	3.73011
248.192	1.40616
248.411	2.42315
248.631	4.05
248.85	5.32324
249.07	3.67082
249.289	6.91206
249.508	5.14593
249.728	7.99197
249.947	9.12475
250.166	9.29014
250.386	5.94148
250.605	7.2316
250.824	11.79615
251.044	8.97341
251.263	27.89205
251.482	14.3132
251.701	12.94801
251.921	0.54189
252.14	4.39201
252.359	5.0864
252.578	10.53789
252.798	3.65594
253.017	9.12171
253.236	5.06302
253.455	6.21092
253.674	12.89813
253.893	5.29082
254.112	9.09793
254.331	11.83785
254.551	11.38719
254.77	4.31674
254.989	16.71118
255.208	12.99354
255.427	17.73424
255.646	15.05644
255.865	24.88856
256.084	9.86949
256.303	11.65526
256.522	15.76139
256.741	3.66622
256.96	4.85247
257.179	9.96275
257.397	11.77119
257.616	6.04271
257.835	7.36111
258.054	16.28718
258.273	10.37932
258.492	12.33778
258.711	6.85786
258.93	3.2411
259.148	4.43528
259.367	4.25767
259.586	5.579
259.805	2.5565
260.023	5.40014
260.242	4.03614
260.461	3.0171
260.68	1.68774
260.898	4.59664
261.117	1.6131
261.336	1.08085
261.554	4.25981
261.773	4.10541
261.992	0.99057
262.21	3.9849
262.429	5.21658
262.648	8.14344
262.866	9.5287
263.085	6.12986
263.303	5.2381
263.522	9.30859
263.74	9.82585
263.959	16.25636
264.178	8.23032
264.396	7.90274
264.615	5.00055
264.833	12.26261
265.051	11.57561
265.27	10.68052
265.488	12.44778
265.707	8.11921
265.925	12.24615
266.144	5.37983
266.362	6.96354
266.58	6.71541
266.799	5.10979
267.017	6.52788
267.235	6.08772
267.454	3.67485
267.672	2.33999
267.89	4.657
268.109	5.16049
268.327	4.79975
268.545	1.56501
268.763	4.75117
268.982	2.04567
269.2	5.7364
269.418	3.56718
269.636	2.80077
269.854	4.69467
270.073	4.27708
270.291	1.49619
270.509	2.14994
270.727	4.98
270.945	7.778
271.163	8.2293
271.381	2.10784
271.599	3.07153
271.817	5.84389
272.036	2.07095
272.254	3.40146
272.472	2.65036
272.69	2.78645
272.908	2.7794
273.126	4.92781
273.344	5.9097
273.562	2.11534
273.779	2.83055
273.997	4.13489
274.215	4.72108
274.433	3.5532
274.651	5.19212
274.869	5.06698
275.087	3.27238
275.305	4.69649
275.523	2.53195
275.74	3.76627
275.958	5.8447
276.176	8.73674
276.394	2.95258
276.612	3.6661
276.829	3.51687
277.047	2.80776
277.265	3.69645
277.483	4.26754
277.7	4.6981
277.918	3.96551
278.136	6.96508
278.353	3.38435
278.571	1.8433
278.789	5.83371
279.006	1.26052
279.224	3.10074
279.442	5.79813
279.659	3.44869
279.877	3.09529
280.094	6.18886
280.312	1.29131
280.529	3.74212
280.747	1.1689
280.964	2.94806
281.182	6.56898
281.399	3.0363
281.617	4.51852
281.834	3.04496
282.052	2.48439
282.269	3.33608
282.487	2.9456
282.704	2.37362
282.921	2.78682
283.139	3.54674
283.356	4.69802
283.574	4.07253
283.791	2.29278
284.008	5.73209
284.226	2.8437
284.443	3.58258
284.66	4.84525
284.877	3.65103
285.095	2.4793
285.312	1.68758
285.529	1.27356
285.746	1.00041
285.964	2.21335
286.181	1.68053
286.398	2.19943
286.615	2.94567
286.832	3.01583
287.05	0.94221
287.267	2.06516
287.484	2.16798
287.701	3.1014
287.918	2.76245
288.135	3.08152
288.352	1.45701
288.569	1.5395
288.786	2.82475
289.003	2.15188
289.22	3.15045
289.437	1.92472
289.654	3.32136
289.871	3.52315
290.088	3.18024
290.305	2.35694
290.522	1.97619
290.739	2.40654
290.956	3.55479
291.173	4.13587
291.39	3.74297
291.607	2.72855
291.824	2.15467
292.04	1.43058
292.257	3.10794
292.474	3.44341
292.691	2.33243
292.908	1.37957
293.125	2.28298
293.341	1.34584
293.558	5.54003
293.775	2.4924
293.992	2.38861
294.208	1.05673
294.425	1.31278
294.642	2.00594
294.858	2.49763
295.075	1.0213
295.292	2.32167
295.508	2.67303
295.725	4.17199
295.942	2.05421
296.158	1.48096
296.375	2.18461
296.591	1.83617
296.808	1.88758
297.024	2.18076
297.241	2.40541
297.458	2.55312
297.674	0.25038
297.891	1.97518
298.107	1.6638
298.323	1.20164
298.54	2.95424
298.756	1.51596
298.973	0.77312
299.189	3.10411
299.406	1.32459
299.622	3.25781
299.838	3.15479
300.055	2.92437
300.271	0.83753
300.487	1.178
300.704	1.43239
300.92	0.99003
301.136	4.36988
301.353	3.00964
301.569	2.16503
301.785	2.50617
302.001	2.94934
302.218	2.71225
302.434	2.52404
302.65	0.90264
302.866	1.87242
303.083	4.28677
303.299	4.2064
303.515	2.21217
303.731	2.18635
303.947	0.92777
304.163	1.47292
304.379	2.47736
304.595	2.70812
304.812	1.53992
305.028	1.08512
305.244	1.92914
305.46	2.80257
305.676	3.24162
305.892	3.64513
306.108	2.29338
306.324	1.83184
306.54	4.1644
306.756	3.01559
306.972	2.71318
307.187	1.98338
307.403	3.81869
307.619	1.5576
307.835	3.19069
308.051	3.69939
308.267	0.74657
308.483	3.27215
308.699	2.5888
308.914	2.19051
309.13	2.00478
309.346	0.63691
309.562	1.09347
309.778	0.81997
309.993	2.81515
310.209	2.06433
310.425	0.99231
310.641	1.81536
310.856	1.10598
311.072	1.13278
311.288	1.97605
311.503	2.22972
311.719	0.35596
311.935	0.39086
312.15	2.40499
312.366	2.09478
312.581	2.58293
312.797	2.22204
313.013	2.78506
313.228	1.72946
313.444	2.00282
313.659	1.5414
313.875	2.50744
314.09	2.13189
314.306	3.23171
314.521	3.12775
314.737	2.7095
314.952	2.46771
315.168	2.16109
315.383	2.68932
315.599	1.82597
315.814	1.99802
316.029	2.87374
316.245	0.95033
316.46	0.77429
316.675	3.48375
316.891	4.20152
317.106	4.99586
317.321	2.96261
317.537	2.86939
317.752	2.96214
317.967	2.95075
318.183	1.54216
318.398	1.89457
318.613	3.10612
318.828	3.73298
319.043	2.90921
319.259	1.61271
319.474	2.58618
319.689	3.49713
319.904	0.52995
320.119	3.10304
320.334	2.61953
320.549	2.03557
320.765	3.27843
320.98	2.50896
321.195	3.30233
321.41	2.16633
321.625	3.02451
321.84	4.28786
322.055	4.25772
322.27	1.51674
322.485	1.04955
322.7	2.41376
322.915	3.64102
323.13	1.34883
323.345	3.72697
323.56	3.0219
323.775	2.88176
323.989	2.81566
324.204	2.30581
324.419	3.13858
324.634	1.1351
324.849	1.99502
325.064	4.65139
325.279	3.35945
325.493	2.96387
325.708	3.2784
325.923	1.46323
326.138	1.46084
326.352	3.79253
326.567	3.13877
326.782	1.77473
326.997	1.50074
327.211	2.64746
327.426	2.60437
327.641	1.99504
327.855	0.71838
328.07	2.79324
328.285	3.77019
328.499	2.00639
328.714	3.01252
328.928	3.06587
329.143	2.34218
329.358	3.22165
329.572	3.25719
329.787	3.69724
330.001	4.74582
330.216	0.94852
330.43	3.96353
330.645	4.12433
330.859	3.12456
331.074	1.55403
331.288	2.55023
331.503	3.70167
331.717	1.10894
331.931	2.16517
332.146	2.43552
332.36	3.79796
332.575	3.01161
332.789	2.45072
333.003	2.1817
333.218	2.79685
333.432	2.0065
333.646	3.04359
333.86	3.86988
334.075	3.92807
334.289	2.03024
334.503	1.43177
334.717	3.2205
334.932	3.08884
335.146	3.65556
335.36	2.02661
335.574	3.00179
335.788	2.75163
336.003	3.6011
336.217	2.98471
336.431	2.88595
336.645	1.7165
336.859	1.16364
337.073	1.98995
337.287	2.43286
337.501	1.2426
337.715	2.60085
337.929	3.05776
338.143	1.26738
338.357	2.22164
338.571	1.22791
338.785	2.6907
338.999	1.82254
339.213	2.0283
339.427	0.90943
339.641	3.31264
339.855	2.10707
340.069	1.80155
340.283	3.13438
340.497	3.96242
340.711	2.79198
340.924	1.86375
341.138	1.21159
341.352	0.9956
341.566	2.44965
341.78	0.77655
341.993	1.78823
342.207	1.19305
342.421	2.48681
342.635	2.37564
342.848	1.76449
343.062	0.34694
343.276	1.73358
343.49	4.24788
343.703	1.50536
343.917	3.00293
344.131	3.26162
344.344	1.52205
344.558	1.72249
344.771	1.4292
344.985	3.35804
345.199	3.7129
345.412	2.30908
345.626	2.49589
345.839	0.68743
346.053	1.29499
346.266	1.20937
346.48	2.92726
346.693	2.32118
346.907	2.81779
347.12	1.40288
347.334	2.58786
347.547	2.58753
347.76	1.8781
347.974	3.35875
348.187	2.46488
348.401	1.92837
348.614	1.77801
348.827	1.82222
349.041	2.76816
349.254	0.76508
349.467	1.78593
349.681	0.9086
349.894	1.71061
350.107	3.26478
350.32	3.48369
350.534	0.62812
350.747	1.67949
350.96	1.44829
351.173	1.59688
351.386	1.831
351.6	1.88056
351.813	1.55185
352.026	2.34227
352.239	1.05609
352.452	1.78916
352.665	2.86145
352.878	1.82173
353.092	4.12686
353.305	2.6321
353.518	2.29173
353.731	1.4078
353.944	3.32543
354.157	1.47631
354.37	1.22099
354.583	0.982
354.796	0.59523
355.009	3.0531
355.222	1.99858
355.435	2.21681
355.647	3.04227
355.86	0.93956
356.073	1.86329
356.286	1.56692
356.499	2.57058
356.712	2.07962
356.925	2.36533
357.138	2.76736
357.35	1.19076
357.563	1.58104
357.776	2.02068
357.989	1.56596
358.201	2.36577
358.414	1.73474
358.627	2.88441
358.84	1.63095
359.052	1.08874
359.265	0.8003
359.478	2.74993
359.69	-0.40447
359.903	2.18193
360.116	2.48636
360.328	0.39269
360.541	2.46327
360.753	0.97447
360.966	1.36295
361.179	1.38512
361.391	1.29936
361.604	0.90713
361.816	1.28514
362.029	1.11199
362.241	1.04894
362.454	1.29365
362.666	0.95592
362.879	1.60488
363.091	1.46002
363.304	0.97271
363.516	1.68324
363.728	0.79367
363.941	2.09459
364.153	1.22427
364.366	-0.06702
364.578	0.83982
364.79	2.07493
365.003	1.59947
365.215	1.38212
365.427	1.98658
365.639	2.6592
365.852	1.97333
366.064	3.2061
366.276	1.21113
366.488	2.1163
366.701	1.25032
366.913	1.59046
367.125	1.54603
367.337	1.13093
367.549	1.27234
367.762	1.73827
367.974	1.8245
368.186	0.99885
368.398	2.65564
368.61	2.21238
368.822	2.236
369.034	1.63178
369.246	2.24858
369.458	3.58669
369.67	1.00614
369.882	3.25106
370.094	0.1315
370.306	2.94518
370.518	1.29498
370.73	0.93101
370.942	1.00293
371.154	1.37353
371.366	1.04879
371.578	1.87517
371.79	0.99549
372.002	2.6169
372.214	3.03164
372.425	1.74165
372.637	2.70299
372.849	1.61209
373.061	-0.03181
373.273	1.97444
373.484	1.93521
373.696	2.30654
373.908	-0.03532
374.12	2.53653
374.331	2.07782
374.543	1.05569
374.755	0.87917
374.967	1.82953
375.178	2.26258
375.39	1.53364
375.602	1.88806
375.813	0.80796
376.025	0.37939
376.236	1.58777
376.448	1.59993
376.66	1.20193
376.871	1.17505
377.083	2.25749
377.294	2.54879
377.506	1.20101
377.717	2.4468
377.929	1.68
378.14	0.94119
378.352	1.90892
378.563	1.82185
378.775	2.43785
378.986	0.92279
379.197	1.57589
379.409	1.14795
379.62	2.18253
379.832	1.78558
380.043	1.43105
380.254	1.62035
380.466	0.56273
380.677	3.72487
380.888	3.16249
381.1	3.5127
381.311	3.27482
381.522	1.51702
381.733	3.65716
381.945	1.32032
382.156	1.6464
382.367	1.28216
382.578	3.85211
382.789	3.62942
383.001	1.34367
383.212	2.47002
383.423	2.64877
383.634	2.39674
383.845	1.86177
384.056	1.26136
384.267	1.4615
384.478	1.34865
384.69	0.76498
384.901	1.93524
385.112	1.75931
385.323	2.69524
385.534	1.88134
385.745	1.80485
385.956	1.80183
386.167	0.76622
386.378	1.71797
386.588	0.67705
386.799	0.90845
387.01	0.12747
387.221	2.12594
387.432	1.48483
387.643	2.84747
387.854	1.40036
388.065	1.25793
388.275	1.34665
388.486	1.24736
388.697	1.44729
388.908	1.3721
389.119	2.47684
389.329	2.66641
389.54	1.50588
389.751	1.83242
389.962	2.29317
390.172	1.57106
390.383	1.12506
390.594	0.9815
390.804	0.9103
391.015	0.94938
391.226	1.4752
391.436	1.78756
391.647	1.57436
391.858	1.83248
392.068	0.252
392.279	0.46839
392.489	1.38423
392.7	2.30988
392.91	0.6346
393.121	0.9817
393.331	1.67032
393.542	2.24158
393.752	1.67498
393.963	1.50966
394.173	1.35251
394.384	1.8
394.594	1.39237
394.804	0.54832
395.015	1.42991
395.225	1.73976
395.436	0.64464
395.646	1.84357
395.856	0.87085
396.067	0.57793
396.277	2.24521
396.487	1.51768
396.697	1.44503
396.908	1.97534
397.118	1.92642
397.328	1.49679
397.538	2.11108
397.749	0.93555
397.959	2.01283
398.169	1.94704
398.379	0.53217
398.589	1.88361
398.8	1.45613
399.01	1.31778
399.22	1.40475
399.43	2.93665
399.64	0.98588
399.85	1.95732
400.06	1.25094
400.27	1.0233
400.48	1.57601
400.69	2.49373
400.9	1.12031
401.11	0.99564
401.32	2.26404
401.53	1.1405
401.74	2.62953
401.95	2.10205
402.16	0.79728
402.37	1.69915
402.58	0.90415
402.79	1.86259
403	2.17168
403.209	1.09277
403.419	1.93151
403.629	0.97988
403.839	1.89485
404.049	2.00809
404.258	0.75174
404.468	0.82179
404.678	1.83402
404.888	1.85802
405.097	0.76497
405.307	1.44546
405.517	1.81197
405.727	1.48519
405.936	1.26847
406.146	1.57806
406.356	2.34503
406.565	1.37582
406.775	0.9975
406.984	1.06195
407.194	2.85889
407.404	1.45777
407.613	1.77634
407.823	2.15315
408.032	2.29235
408.242	2.18645
408.451	1.19766
408.661	1.24959
408.87	2.60183
409.08	1.15761
409.289	1.74653
409.499	1.50747
409.708	1.6002
409.918	0.16026
410.127	1.46674
410.336	2.47694
410.546	1.90895
410.755	1.11696
410.964	1.19448
411.174	0.80828
411.383	1.84919
411.592	1.72879
411.802	0.83947
412.011	2.31228
412.22	1.46305
412.429	2.51694
412.639	2.51654
412.848	2.51254
413.057	2.645
413.266	2.30975
413.475	1.42041
413.685	2.10368
413.894	1.90905
414.103	2.37064
414.312	2.09967
414.521	1.49876
414.73	1.75572
414.939	2.86295
415.148	1.92751
415.357	1.76922
415.566	1.27626
415.776	1.15602
415.985	1.11719
416.194	2.05769
416.403	2.56276
416.611	0.60777
416.82	1.0612
417.029	1.50812
417.238	0.99338
417.447	0.77992
417.656	1.05156
417.865	0.85483
418.074	1.08245
418.283	1.45775
418.492	2.07161
418.7	1.9754
418.909	2.72464
419.118	1.64649
419.327	1.99429
419.536	1.68827
419.744	1.33143
419.953	2.59636
420.162	2.49023
420.371	1.26849
420.579	1.17619
420.788	2.34526
420.997	2.47761
421.205	2.30939
421.414	2.01171
421.623	2.14538
421.831	1.58255
422.04	2.38382
422.249	1.48275
422.457	2.28894
422.666	1.61838
422.874	2.6824
423.083	2.58471
423.291	2.54087
423.5	2.08259
423.708	2.37566
423.917	2.72592
424.125	2.10199
424.334	1.72632
424.542	3.80378
424.751	2.92101
424.959	2.65283
425.167	3.21568
425.376	3.03244
425.584	2.33961
425.793	2.59776
426.001	1.54265
426.209	2.60598
426.418	1.58837
426.626	1.66242
426.834	1.34746
427.042	1.78695
427.251	1.36627
427.459	2.20736
427.667	1.78184
427.875	0.93276
428.084	1.42184
428.292	2.54919
428.5	2.04236
428.708	1.26455
428.916	1.2361
429.124	1.84449
429.333	1.54134
429.541	1.56751
429.749	1.76237
429.957	1.71431
430.165	3.12669
430.373	0.87468
430.581	1.79593
430.789	2.47364
430.997	1.52861
431.205	1.3692
431.413	1.81621
431.621	1.46319
431.829	2.26577
432.037	1.50396
432.245	2.064
432.453	2.04475
432.661	1.55774
432.869	3.01632
433.076	1.26267
433.284	1.77675
433.492	2.27516
433.7	2.73192
433.908	1.67648
434.116	2.07825
434.323	2.02178
434.531	1.97597
434.739	2.20543
434.947	2.29814
435.154	2.37611
435.362	1.92441
435.57	1.64258
435.778	1.49247
435.985	2.02815
436.193	1.55549
436.401	2.55809
436.608	1.86708
436.816	1.57088
437.023	2.84669
437.231	2.87231
437.439	2.04685
437.646	2.14679
437.854	2.25096
438.061	2.38901
438.269	1.82981
438.476	2.36247
438.684	2.0928
438.891	1.83306
439.099	1.71195
439.306	1.29003
439.514	1.57572
439.721	2.52247
439.929	1.90087
440.136	2.66512
440.343	2.6148
440.551	2.24207
440.758	4.01407
440.965	2.89031
441.173	2.58277
441.38	2.08342
441.587	2.5744
441.795	2.14799
442.002	2.28328
442.209	2.4136
442.416	2.60428
442.624	2.47242
442.831	2.37156
443.038	1.69771
443.245	1.66487
443.452	1.74546
443.66	2.48024
443.867	1.6811
444.074	1.67342
444.281	1.71284
444.488	2.03702
444.695	2.10518
444.902	2.04209
445.109	2.79857
445.316	2.33805
445.523	2.36062
445.73	2.05854
445.937	2.73398
446.144	3.12741
446.351	3.42419
446.558	2.36677
446.765	3.85891
446.972	3.64338
447.179	2.8252
447.386	3.86285
447.593	2.5642
447.8	3.70956
448.007	2.63742
448.214	2.54271
448.42	2.08528
448.627	3.22843
448.834	2.24353
449.041	2.10609
449.248	2.03279
449.454	2.67547
449.661	3.07461
449.868	2.04924
450.075	1.7042
450.281	1.16742
450.488	1.54933
450.695	1.69791
450.901	1.68995
451.108	1.85405
451.315	2.74937
451.521	2.05472
451.728	2.69644
451.935	1.70418
452.141	1.99333
452.348	2.22011
452.554	2.03531
452.761	1.91884
452.967	3.14231
453.174	2.23468
453.38	2.27684
453.587	1.54847
453.793	2.28467
454	2.71571
454.206	3.43405
454.413	2.81188
454.619	2.47965
454.825	1.83002
455.032	2.54575
455.238	2.81439
455.445	1.51222
455.651	2.48007
455.857	1.24224
456.064	2.06901
456.27	2.07852
456.476	2.07971
456.682	1.4432
456.889	2.37295
457.095	2.56296
457.301	3.58055
457.507	2.36947
457.714	2.35833
457.92	2.27335
458.126	1.72943
458.332	2.14689
458.538	1.95691
458.744	2.23025
458.951	2.25574
459.157	3.97712
459.363	3.02429
459.569	2.90144
459.775	3.63471
459.981	2.85493
460.187	3.29214
460.393	3.64286
460.599	4.11349
460.805	3.21379
461.011	3.03087
461.217	3.61688
461.423	3.05289
461.629	2.37783
461.835	2.87595
462.041	2.38194
462.247	3.32844
462.453	2.25802
462.658	2.36307
462.864	2.74988
463.07	2.72076
463.276	2.40358
463.482	2.66591
463.688	3.32602
463.893	2.2748
464.099	2.23057
464.305	3.53252
464.511	2.12277
464.716	2.42708
464.922	3.01248
465.128	2.03567
465.333	3.46961
465.539	2.8718
465.745	2.5086
465.95	2.65546
466.156	4.23708
466.362	3.31514
466.567	2.41782
466.773	2.41648
466.978	3.56087
467.184	2.07724
467.389	1.47416
467.595	2.85771
467.8	2.10533
468.006	3.41335
468.211	3.41228
468.417	1.94866
468.622	2.81626
468.828	3.05489
469.033	2.74645
469.239	4.45824
469.444	2.24576
469.649	3.13884
469.855	2.54089
470.06	2.80561
470.266	2.1429
470.471	3.0966
470.676	2.82098
470.881	1.57914
471.087	3.21587
471.292	3.85665
471.497	1.90898
471.703	2.51084
471.908	2.32947
472.113	2.79538
472.318	3.23352
472.523	2.09094
472.729	2.881
472.934	3.00555
473.139	2.36767
473.344	3.24148
473.549	3.72068
473.754	2.48142
473.959	4.21288
474.164	2.48965
474.369	2.6267
474.575	3.18845
474.78	2.84243
474.985	2.42995
475.19	1.60113
475.395	2.34806
475.6	2.65104
475.804	3.6457
476.009	2.70998
476.214	2.63651
476.419	2.41658
476.624	1.77852
476.829	2.30021
477.034	3.10464
477.239	2.35861
477.444	2.88364
477.648	3.0626
477.853	3.1392
478.058	2.53399
478.263	2.38934
478.468	2.13502
478.672	2.32071
478.877	3.51246
479.082	3.85941
479.287	3.01829
479.491	2.77162
479.696	2.24645
479.901	3.418
480.105	3.19991
480.31	2.39453
480.515	2.68243
480.719	4.17687
480.924	2.54702
481.128	2.38571
481.333	3.23222
481.538	3.37096
481.742	3.12639
481.947	4.07953
482.151	4.31448
482.356	4.25269
482.56	5.4244
482.765	5.89191
482.969	7.2246
483.174	8.27143
483.378	9.95544
483.582	9.75773
483.787	11.1041
483.991	10.78151
484.196	11.14919
484.4	10.78509
484.604	11.59722
484.809	9.74995
485.013	9.90292
485.217	8.80622
485.422	7.70277
485.626	6.9392
485.83	6.57637
486.034	6.08599
486.239	6.3698
486.443	6.45253
486.647	6.24275
486.851	7.30973
487.055	8.05111
487.26	7.41976
487.464	7.98426
487.668	7.32226
487.872	7.50945
488.076	8.25159
488.28	7.59855
488.484	7.05347
488.688	6.91998
488.892	6.85596
489.096	6.51172
489.3	5.76037
489.504	5.51484
489.708	5.52004
489.912	5.37763
490.116	5.24076
490.32	4.61015
490.524	5.37368
490.728	5.68848
490.932	5.72183
491.136	5.96171
491.34	7.02099
491.544	7.44254
491.748	6.88467
491.951	7.01289
492.155	6.62839
492.359	6.72157
492.563	5.46124
492.767	5.4784
492.97	4.96503
493.174	4.30469
493.378	4.16992
493.582	3.37949
493.785	3.41017
493.989	3.41575
494.193	3.32612
494.396	2.81547
494.6	3.28278
494.804	2.83827
495.007	2.65578
495.211	2.79916
495.414	2.86457
495.618	3.28892
495.822	3.86084
496.025	3.23597
496.229	3.83947
496.432	3.18791
496.636	3.44006
496.839	3.50976
497.043	4.47891
497.246	3.6744
497.45	3.26541
497.653	3.58615
497.856	3.58113
498.06	3.00987
498.263	3.22866
498.467	3.13255
498.67	3.87451
498.873	3.40332
499.077	3.0308
499.28	3.10116
499.483	3.32812
499.686	3.67379
499.89	3.4057
500.093	3.65172
500.296	2.73922
500.499	4.03467
500.703	3.18638
500.906	3.30707
501.109	4.1754
501.312	3.24023
501.515	3.1583
501.719	3.47166
501.922	3.9067
502.125	3.25207
502.328	3.18714
502.531	2.6499
502.734	3.36752
502.937	2.2293
503.14	3.44253
503.343	2.68265
503.546	3.01178
503.749	2.84269
503.952	3.40858
504.155	2.68648
504.358	3.54937
504.561	3.389
504.764	2.52664
504.967	3.3086
505.17	3.32377
505.373	4.17838
505.576	3.28397
505.778	3.5922
505.981	2.84817
506.184	3.96203
506.387	2.38249
506.59	4.45555
506.793	3.91616
506.995	3.40956
507.198	2.10934
507.401	3.48164
507.604	3.57762
507.806	2.67649
508.009	2.9772
508.212	3.62476
508.414	2.89235
508.617	2.8906
508.82	3.2351
509.022	4.11544
509.225	3.50996
509.427	2.54605
509.63	3.95376
509.833	3.31583
510.035	3.14339
510.238	2.42819
510.44	4.06088
510.643	2.1393
510.845	4.52062
511.048	3.61353
511.25	2.96706
511.453	3.1886
511.655	3.46406
511.858	3.13779
512.06	3.87846
512.262	3.31247
512.465	3.8769
512.667	3.24766
512.869	2.74103
513.072	3.60243
513.274	3.9218
513.476	3.75745
513.679	3.86416
513.881	2.85211
514.083	4.31533
514.286	2.90826
514.488	2.94154
514.69	2.95074
514.892	2.73516
515.094	3.90476
515.297	3.00299
515.499	3.39675
515.701	2.9983
515.903	4.49031
516.105	4.36989
516.307	3.85758
516.509	2.26175
516.711	2.73317
516.913	3.42689
517.116	3.24641
517.318	3.10781
517.52	4.08706
517.722	3.97938
517.924	3.05263
518.126	4.25755
518.328	3.64256
518.529	4.4548
518.731	5.20359
518.933	3.74836
519.135	3.9929
519.337	4.80023
519.539	4.22659
519.741	2.70424
519.943	3.44719
520.145	3.19828
520.346	3.97447
520.548	3.32345
520.75	3.67397
520.952	3.31918
521.153	3.6739
521.355	3.71964
521.557	2.87242
521.759	3.51928
521.96	3.40247
522.162	2.83039
522.364	4.05876
522.565	3.07253
522.767	3.92425
522.969	4.05666
523.17	3.80697
523.372	3.65182
523.573	3.22804
523.775	3.45049
523.977	2.81829
524.178	4.42299
524.38	3.11828
524.581	3.86844
524.783	3.52992
524.984	4.38991
525.186	4.09198
525.387	4.70961
525.589	4.41992
525.79	4.22373
525.991	4.10388
526.193	4.88734
526.394	4.0445
526.596	4.93335
526.797	5.11236
526.998	4.70628
527.2	4.73216
527.401	6.2758
527.602	6.5189
527.803	8.35526
528.005	8.43683
528.206	9.20946
528.407	9.90867
528.608	9.72289
528.81	10.05794
529.011	9.16733
529.212	10.40053
529.413	9.24405
529.614	8.63371
529.815	8.58835
530.017	7.80605
530.218	6.78873
530.419	5.77085
530.62	5.73851
530.821	5.42694
531.022	4.31266
531.223	5.36559
531.424	5.15862
531.625	5.23618
531.826	4.95963
532.027	5.25901
532.228	6.41992
532.429	6.00195
532.63	5.99606
532.831	6.66803
533.032	6.55568
533.233	7.32556
533.433	6.92646
533.634	7.27191
533.835	6.66482
534.036	6.02647
534.237	5.87481
534.438	5.55332
534.638	4.58348
534.839	4.59251
535.04	4.78255
535.241	4.21674
535.441	5.46604
535.642	4.70102
535.843	3.81561
536.043	4.21935
536.244	4.35015
536.445	4.41196
536.645	5.40423
536.846	5.08939
537.047	5.58593
537.247	4.1838
537.448	4.3051
537.648	4.35744
537.849	4.05853
538.049	3.92034
538.25	4.12921
538.451	4.06798
538.651	3.33226
538.851	4.03694
539.052	4.56987
539.252	4.37955
539.453	3.64319
539.653	4.03058
539.854	4.1561
540.054	4.60138
540.254	5.73959
540.455	6.3708
540.655	5.69895
540.855	6.90444
541.056	7.7358
541.256	7.1491
541.456	8.36853
541.657	7.44939
541.857	8.47458
542.057	6.85101
542.257	6.5492
542.458	7.36087
542.658	7.07744
542.858	5.47428
543.058	6.3923
543.258	5.74306
543.458	4.36384
543.659	4.08006
543.859	5.13856
544.059	5.00849
544.259	4.25015
544.459	4.69923
544.659	3.70266
544.859	4.17522
545.059	3.61333
545.259	4.30685
545.459	3.93507
545.659	4.49434
545.859	3.8949
546.059	4.13157
546.259	3.64491
546.459	3.33057
546.659	3.44249
546.859	4.46057
547.059	4.02491
547.258	4.18386
547.458	4.14086
547.658	3.39207
547.858	3.38193
548.058	4.04907
548.258	3.79575
548.457	3.27278
548.657	5.46802
548.857	3.66104
549.057	4.40029
549.256	4.34719
549.456	3.842
549.656	2.65894
549.855	5.27567
550.055	3.64465
550.255	5.14218
550.454	4.27248
550.654	4.60219
550.853	5.0655
551.053	4.68
551.253	4.08332
551.452	4.27007
551.652	3.0485
551.851	3.02613
552.051	3.57884
552.25	3.6649
552.45	3.39026
552.649	3.67233
552.849	3.31277
553.048	3.76246
553.248	4.35806
553.447	3.46726
553.646	4.5432
553.846	5.34014
554.045	4.62658
554.244	3.147
554.444	5.06227
554.643	3.47627
554.842	5.04401
555.042	5.51407
555.241	3.62997
555.44	3.35909
555.64	4.50492
555.839	5.42303
556.038	4.33079
556.237	3.61154
556.436	4.06859
556.636	4.33179
556.835	3.54226
557.034	5.2539
557.233	4.04765
557.432	3.07468
557.631	4.84925
557.83	4.08678
558.029	3.79746
558.228	3.7201
558.427	3.26448
558.626	4.33235
558.825	3.43141
559.024	3.99533
559.223	5.59346
559.422	3.95236
559.621	4.37621
559.82	2.2594
560.019	4.14446
560.218	4.02528
560.417	1.80607
560.616	3.45807
560.815	6.47267
561.014	3.00012
561.212	5.36663
561.411	4.04276
561.61	2.91393
561.809	3.71069
562.008	5.01038
562.206	3.91487
562.405	4.40521
562.604	3.86538
562.803	4.23945
563.001	3.84188
563.2	3.00312
563.399	4.45295
563.597	3.10844
563.796	4.06246
563.995	2.89892
564.193	4.45608
564.392	3.89556
564.59	5.77011
564.789	2.58737
564.988	3.50946
565.186	3.99409
565.385	3.81713
565.583	3.72852
565.782	3.80101
565.98	3.6576
566.179	3.82659
566.377	3.00206
566.575	3.31301
566.774	4.76555
566.972	4.55584
567.171	5.46987
567.369	4.98697
567.567	4.19668
567.766	4.25709
567.964	2.38246
568.162	4.46839
568.361	4.96063
568.559	3.8727
568.757	4.54757
568.956	4.23197
569.154	3.99313
569.352	4.61137
569.55	3.97462
569.748	4.00197
569.947	3.29333
570.145	3.38927
570.343	3.16682
570.541	4.87522
570.739	2.93756
570.937	3.91849
571.135	4.49481
571.333	5.21537
571.532	5.25034
571.73	4.14387
571.928	4.89206
572.126	4.39047
572.324	3.51802
572.522	5.12272
572.72	6.11781
572.918	4.09314
573.116	4.36758
573.313	4.07374
573.511	4.12187
573.709	3.77578
573.907	4.4777
574.105	3.81383
574.303	2.65599
574.501	2.85427
574.699	4.4331
574.896	4.26757
575.094	4.54378
575.292	2.85419
575.49	4.70424
575.688	3.81967
575.885	5.03466
576.083	5.67011
576.281	4.2947
576.478	3.55695
576.676	4.52897
576.874	2.87849
577.071	4.03815
577.269	5.89063
577.467	4.17053
577.664	4.13211
577.862	5.06108
578.059	3.60148
578.257	4.98791
578.455	4.00461
578.652	4.22011
578.85	2.36952
579.047	4.44614
579.245	4.10386
579.442	4.2385
579.64	4.28235
579.837	2.69829
580.034	6.45926
580.232	4.0135
580.429	3.08241
580.627	4.64291
580.824	5.56541
581.021	4.6335
581.219	3.82109
581.416	3.27813
581.613	5.24505
581.811	5.61641
582.008	3.44648
582.205	5.0019
582.402	4.51168
582.6	6.17244
582.797	4.39654
582.994	4.54673
583.191	5.21472
583.388	4.35972
583.586	5.05043
583.783	5.22729
583.98	3.73169
584.177	4.47469
584.374	1.32231
584.571	4.02205
584.768	4.13272
584.965	3.69371
585.162	4.78379
585.359	5.86167
585.556	4.25376
585.753	4.67566
585.95	3.11252
586.147	4.03979
586.344	4.97418
586.541	4.05259
586.738	3.07351
586.935	4.28455
587.132	3.61547
587.329	5.30865
587.526	4.40849
587.722	9.35819
587.919	2.90545
588.116	4.75013
588.313	5.64119
588.51	6.62167
588.706	3.72951
588.903	4.82738
589.1	5.15627
589.297	6.89692
589.493	4.27663
589.69	5.00133
589.887	3.84269
590.083	3.0953
590.28	3.63744
590.477	5.07767
590.673	5.04308
590.87	5.81994
591.067	4.27981
591.263	4.91298
591.46	5.06066
591.656	4.04858
591.853	5.6388
592.049	3.61763
592.246	3.57915
592.442	5.89013
592.639	5.49613
592.835	3.31067
593.032	4.8243
593.228	2.92795
593.425	2.89805
593.621	2.86955
593.817	4.64178
594.014	3.5881
594.21	4.29249
594.406	5.29315
594.603	4.67404
594.799	3.64107
594.995	1.96234
595.192	5.44705
595.388	3.75812
595.584	3.86411
595.78	2.73773
595.977	6.45298
596.173	5.90522
596.369	3.96504
596.565	3.25683
596.761	2.82546
596.957	5.47213
597.154	3.43303
597.35	3.66669
597.546	3.59531
597.742	4.9791
597.938	4.39632
598.134	3.55735
598.33	4.63752
598.526	5.90715
598.722	4.57898
598.918	6.39183
599.114	4.9713
599.31	3.46024
599.506	4.47923
599.702	4.11765
599.898	4.60426
600.094	5.33362
600.29	5.4865
600.485	5.43923
600.681	4.20667
600.877	6.43949
601.073	4.57094
601.269	6.73671
601.465	5.81157
601.66	3.46189
601.856	2.37608
602.052	6.30503
602.248	3.89475
602.443	2.31575
602.639	3.23876
602.835	3.77257
603.03	3.46434
603.226	5.15135
603.422	3.54757
603.617	3.96197
603.813	3.78087
604.009	3.70614
604.204	5.27268
604.4	2.84214
604.595	5.12641
604.791	3.16235
604.986	4.47691
605.182	3.38288
605.377	3.92158
605.573	3.69948
605.768	4.49253
605.964	5.00064
606.159	5.05979
606.355	5.65303
606.55	3.78667
606.746	5.54642
606.941	4.27694
607.136	6.68581
607.332	8.11237
607.527	3.10561
607.722	4.74713
607.918	4.11948
608.113	3.52979
608.308	5.30591
608.503	4.87123
608.699	4.72601
608.894	4.75361
609.089	3.41942
609.284	4.51763
609.479	3.82364
609.675	4.86684
609.87	3.94825
610.065	5.151
610.26	5.44752
610.455	5.11836
610.65	4.34416
610.845	4.68595
611.04	5.42092
611.235	4.50048
611.43	4.16569
611.625	3.13818
611.82	6.12875
612.015	3.89095
612.21	6.36023
612.405	2.84979
612.6	6.66542
612.795	6.35691
612.99	5.64007
613.185	3.53991
613.38	3.81204
613.575	5.11183
613.77	8.07426
613.965	2.95869
614.159	3.56695
614.354	6.64369
614.549	5.98861
614.744	5.63935
614.938	3.48846
615.133	3.22996
615.328	6.51391
615.523	6.12454
615.717	8.42384
615.912	4.00052
616.107	4.92091
616.301	4.25411
616.496	4.14564
616.691	7.02756
616.885	5.91963
617.08	8.38375
617.274	6.35543
617.469	7.81518
617.664	5.83497
617.858	4.49721
618.053	5.21854
618.247	4.68396
618.442	1.86345
618.636	6.93917
618.831	4.20715
619.025	3.98504
619.219	8.63059
619.414	0.74002
619.608	4.86387
619.803	4.11305
619.997	7.71351
620.191	6.84684
620.386	5.60847
620.58	5.21054
620.774	2.92803
620.969	3.00305
621.163	5.25866
621.357	3.36004
621.551	4.73536
621.746	5.45206
621.94	4.70919
622.134	9.51239
622.328	7.98615
622.522	3.40808
622.716	6.54548
622.911	6.40717
623.105	6.32144
623.299	5.55764
623.493	9.45515
623.687	3.70399
623.881	4.74301
624.075	5.61851
624.269	6.64946
624.463	2.63602
624.657	2.92678
624.851	5.87192
625.045	6.38954
625.239	6.37139
625.433	4.49765
625.627	7.04177
625.821	4.18456
626.015	4.05099
626.209	5.26304
626.403	2.75447
626.596	5.31801
626.79	5.97006
626.984	3.38637
627.178	5.59053
627.372	5.62345
627.565	5.97031
627.759	2.9126
627.953	3.46945
628.147	5.51834
628.34	5.73415
628.534	7.68455
628.728	4.71574
628.921	6.55052
629.115	6.3301
629.309	6.3795
629.502	6.54531
629.696	5.35246
629.89	4.92322
630.083	5.56179
630.277	5.78146
630.47	8.17396
630.664	4.75649
630.857	3.51527
631.051	6.45667
631.244	7.32035
631.438	6.86192
631.631	3.88261
631.825	7.48771
632.018	6.34063
632.212	8.13039
632.405	7.00739
632.598	4.54892
632.792	5.80495
632.985	2.30179
633.178	4.89496
633.372	4.91595
633.565	5.04314
633.758	7.46116
633.952	3.99912
634.145	4.2666
634.338	5.56004
634.531	4.62906
634.724	4.35068
634.918	5.69109
635.111	4.90459
635.304	5.07103
635.497	9.10295
635.69	5.96682
635.883	7.13212
636.077	3.6084
636.27	6.06665
636.463	6.07231
636.656	6.10928
636.849	4.58716
637.042	6.25382
637.235	8.43931
637.428	6.7435
637.621	6.84138
637.814	8.05948
638.007	8.6928
638.2	8.37379
638.393	8.81086
638.586	4.2507
638.778	5.45875
638.971	6.33883
639.164	8.63278
639.357	6.6242
639.55	8.34774
639.743	7.11556
639.935	7.28937
640.128	9.60546
640.321	7.20505
640.514	6.08074
640.707	10.38098
640.899	7.00921
641.092	3.4482
641.285	19.71109
641.477	2.82098
641.67	10.29893
641.863	8.36393
642.055	6.56917
642.248	6.21243
642.441	5.36997
642.633	7.30974
642.826	9.36907
643.018	9.27063
643.211	10.06715
643.403	9.25879
643.596	10.61653
643.788	10.33745
643.981	6.05132
644.173	8.05233
644.366	6.14453
644.558	3.20667
644.751	8.01503
644.943	3.85733
645.135	9.60396
645.328	9.99734
645.52	7.80437
645.712	8.92478
645.905	13.15352
646.097	4.53354
646.289	7.17419
646.482	10.89254
646.674	5.12863
646.866	8.92368
647.058	7.4944
647.251	4.77894
647.443	5.59466
647.635	6.22666
647.827	5.11328
648.019	5.49587
648.211	6.96739
648.404	7.1161
648.596	9.85033
648.788	7.30631
648.98	7.32342
649.172	7.69329
649.364	7.43213
649.556	3.53499
649.748	11.56487
649.94	5.2543
650.132	8.14878
650.324	5.61982
650.516	6.05846
650.708	9.44802
650.9	3.91464
651.092	3.8739
651.284	4.25917
651.476	4.47223
651.667	7.81707
651.859	9.75855
652.051	6.47327
652.243	7.01177
652.435	5.70519
652.627	7.96964
652.818	7.37685
653.01	3.73396
653.202	4.97678
653.394	5.85568
653.585	8.30251
653.777	16.26527
653.969	9.87749
654.16	9.26585
654.352	5.09863
654.544	6.4142
654.735	9.80278
654.927	7.28729
655.118	10.75627
655.31	8.94185
655.502	9.32462
655.693	6.00006
655.885	8.98571
656.076	9.86341
656.268	7.51769
656.459	10.6306
656.651	9.78169
656.842	6.25796
657.034	6.02317
657.225	9.19977
657.416	10.22565
657.608	9.95243
657.799	7.09481
657.99	9.30632
658.182	5.50353
658.373	5.66688
658.564	8.30707
658.756	6.8669
658.947	6.77141
659.138	5.01742
659.33	5.87484
659.521	5.12565
659.712	6.44526
659.903	6.18033
660.094	5.71155
660.286	4.19694
660.477	10.27384
660.668	8.31197
660.859	7.15722
661.05	3.99121
661.241	8.6481
661.432	8.26959
661.623	6.76916
661.814	6.38072
662.006	3.66148
662.197	8.15295
662.388	10.50705
662.579	8.12291
662.77	10.17191
662.96	14.32352
663.151	10.30944
663.342	3.872
663.533	8.52734
663.724	7.7133
663.915	12.02175
664.106	7.13767
664.297	11.67589
664.488	9.8474
664.678	6.7834
664.869	9.30605
665.06	9.90154
665.251	8.554
665.442	9.11816
665.632	5.46581
665.823	12.46744
666.014	1.64349
666.204	9.39345
666.395	10.51639
666.586	15.52235
666.776	10.14571
666.967	12.56148
667.158	7.75117
667.348	11.88084
667.539	5.64034
667.729	10.2076
667.92	6.30256
668.111	10.9989
668.301	9.7943
668.492	7.76411
668.682	8.43771
668.873	7.87946
669.063	5.57195
669.253	8.15278
669.444	10.51656
669.634	7.3988
669.825	13.04341
670.015	10.24538
670.206	6.10634
670.396	14.19133
670.586	8.20926
670.777	9.16107
670.967	2.65945
671.157	7.82662
671.347	6.99011
671.538	12.65597
671.728	9.79545
671.918	12.97742
672.108	10.41697
672.299	8.30189
672.489	9.66562
672.679	7.37028
672.869	10.01099
673.059	13.26506
673.249	10.77153
673.44	6.01815
673.63	8.23347
673.82	11.69205
674.01	6.57637
674.2	10.74403
674.39	16.64536
674.58	10.63976
674.77	9.13722
674.96	9.15045
675.15	20.73153
675.34	11.73843
675.53	9.22637
675.72	7.5725
675.91	5.38198
676.099	13.60717
676.289	15.56922
676.479	11.29468
676.669	7.83481
676.859	10.02277
677.049	6.62217
677.238	9.42903
677.428	14.82952
677.618	10.30005
677.808	12.44629
677.997	11.36581
678.187	6.21488
678.377	8.7862
678.567	7.18165
678.756	7.63912
678.946	8.06836
679.136	5.27115
679.325	6.7223
679.515	6.66717
679.704	5.81546
679.894	10.23942
680.084	8.85552
680.273	11.0987
680.463	6.80092
680.652	6.04025
680.842	8.50525
681.031	11.28777
681.221	6.50831
681.41	10.20861
681.6	8.19354
681.789	10.81383
681.978	11.5709
682.168	10.14405
682.357	9.44899
682.547	11.13755
682.736	9.04331
682.925	12.17991
683.115	11.82161
683.304	10.90835
683.493	10.35675
683.682	10.39124
683.872	11.03572
684.061	13.17458
684.25	11.52419
684.439	15.57821
684.629	10.78529
684.818	20.58227
685.007	9.49813
685.196	8.5214
685.385	15.42293
685.574	11.05901
685.763	10.79759
685.952	10.5303
686.142	7.24837
686.331	13.9151
686.52	4.95741
686.709	15.32617
686.898	15.05582
687.087	12.29424
687.276	15.37
687.465	13.6032
687.654	9.49122
687.842	15.47272
688.031	6.22698
688.22	14.26132
688.409	11.11015
688.598	10.54205
688.787	18.25068
688.976	11.64203
689.165	16.46292
689.353	9.35927
689.542	11.80576
689.731	13.02902
689.92	17.10151
690.108	13.70859
690.297	9.58531
690.486	11.67618
690.675	13.13502
690.863	17.27553
691.052	16.28971
691.241	12.03645
691.429	11.82535
691.618	16.5866
691.806	7.55691
691.995	10.1766
692.184	11.39307
692.372	9.09585
692.561	11.63291
692.749	11.15277
692.938	20.90412
693.126	13.80384
693.315	11.28832
693.503	13.64024
693.692	13.80441
693.88	15.22631
694.068	19.57788
694.257	11.72915
694.445	13.77319
694.634	4.93705
694.822	15.44923
695.01	16.19704
695.199	16.96538
695.387	17.16632
695.575	15.64448
695.763	12.30488
695.952	10.55761
696.14	6.87718
696.328	10.43828
696.516	12.02763
696.705	12.62498
696.893	13.03527
697.081	5.92235
697.269	13.78574
697.457	8.18989
697.645	7.16863
697.833	14.01534
698.021	8.7366
698.21	9.17812
698.398	10.4561
698.586	7.11333
698.774	7.0554
698.962	9.41337
699.15	7.39683
699.338	6.13184
699.526	11.48965
699.714	8.44363
699.901	8.36593
700.089	13.73275
700.277	8.20131
700.465	9.69912
700.653	13.75137
700.841	13.29257
701.029	8.40232
701.217	15.83348
701.404	12.41688
701.592	16.84035
701.78	19.40805
701.968	10.0037
702.155	11.86487
702.343	7.34148
702.531	16.23759
702.718	13.62054
702.906	11.82055
703.094	9.8478
703.281	17.55174
703.469	11.77283
703.657	17.60775
703.844	24.41609
704.032	19.04655
704.219	11.18011
704.407	14.07838
704.595	17.92017
704.782	12.67819
704.97	11.16546
705.157	10.25714
705.345	19.06265
705.532	24.49221
705.719	14.61717
705.907	19.62667
706.094	13.4436
706.282	20.4133
706.469	11.92013
706.656	14.58279
706.844	11.98751
707.031	17.20427
707.218	14.22445
707.406	20.33264
707.593	16.68564
707.78	16.74064
707.968	13.46268
708.155	9.78646
708.342	16.76728
708.529	16.7385
708.716	14.49291
708.904	21.29667
709.091	17.29821
709.278	8.99096
709.465	21.50441
709.652	21.36958
709.839	19.47169
710.026	15.22922
710.213	7.18856
710.4	15.90381
710.587	18.33965
710.774	18.70956
710.961	18.79656
711.148	14.46761
711.335	19.84306
711.522	13.69375
711.709	16.58957
711.896	23.90022
712.083	18.77083
712.27	10.97906
712.457	15.90119
712.644	8.82795
712.831	23.65786
713.017	14.81156
713.204	19.22696
713.391	12.38809
713.578	19.53565
713.765	21.72978
713.951	18.30847
714.138	29.66283
714.325	18.41399
714.512	15.57749
714.698	11.61276
714.885	23.01514
715.072	17.24946
715.258	16.83587
715.445	13.86765
715.631	22.37325
715.818	5.52601
716.005	13.31452
716.191	18.60443
716.378	14.53237
716.564	19.83466
716.751	12.29759
716.937	14.68801
717.124	21.52167
717.31	12.63804
717.497	24.00306
717.683	13.42382
717.869	26.62232
718.056	15.10298
718.242	19.80832
718.429	15.47563
718.615	11.45388
718.801	16.87035
718.988	21.24426
719.174	18.86565
719.36	16.22504
719.547	21.87359
719.733	20.20354
719.919	19.60258
720.105	20.07578
720.291	16.78952
720.478	18.87149
720.664	17.75702
720.85	15.16875
721.036	32.72327
721.222	26.85893
721.408	17.44479
721.595	28.59996
721.781	26.48938
721.967	23.66766
722.153	27.90233
722.339	20.73001
722.525	20.27889
722.711	14.11773
722.897	11.04986
723.083	16.19347
723.269	24.54886
723.455	32.41725
723.641	34.83673
723.827	21.3674
724.012	20.88666
724.198	17.65596
724.384	26.18158
724.57	20.72427
724.756	11.76748
724.942	9.05297
725.127	23.93968
725.313	26.53686
725.499	25.05691
725.685	30.70464
725.87	19.88106
726.056	15.5598
726.242	26.46091
726.428	10.43201
726.613	25.05102
726.799	17.52518
726.985	12.61537
727.17	10.74353
727.356	29.95149
727.541	13.82832
727.727	17.99874
727.913	23.76185
728.098	16.06088
728.284	24.41371
728.469	12.3864
728.655	14.06383
728.84	24.37448
729.026	22.58933
729.211	23.21151
729.397	21.22322
729.582	22.273
729.767	18.4257
729.953	21.7617
730.138	24.94951
730.323	7.30283
730.509	12.9242
730.694	28.67402
730.879	21.37085
731.065	20.09325
731.25	33.0414
731.435	23.1171
731.621	11.36468
731.806	17.22696
731.991	21.12265
732.176	12.06857
732.361	27.09076
732.547	22.05473
732.732	10.38142
732.917	33.38189
733.102	13.60945
733.287	15.29416
733.472	20.06803
733.657	20.55064
733.842	10.9908
734.027	17.35713
734.212	19.62437
734.397	16.18244
734.582	20.22815
734.767	24.11397
734.952	27.47739
735.137	5.79269
735.322	29.2344
735.507	21.7515
735.692	21.55624
735.877	34.32497
736.062	32.32717
736.247	22.24602
736.431	18.40339
736.616	29.5223
736.801	21.19405
736.986	21.46594
737.171	16.70315
737.355	11.97304
737.54	29.23922
737.725	20.73763
737.909	38.90724
738.094	17.43649
738.279	26.35128
738.463	19.67846
738.648	25.45117
738.833	23.24335
739.017	34.41633
739.202	20.45177
739.386	22.47116
739.571	15.30181
739.756	26.2827
739.94	21.36478
740.125	27.1647
740.309	17.49704
740.494	25.0635
740.678	21.65746
740.863	24.1638
741.047	22.81817
741.231	29.89114
741.416	16.67707
741.6	31.60977
741.785	16.26181
741.969	27.72003
742.153	29.50574
742.338	8.22971
742.522	21.72127
742.706	27.43153
742.89	12.30951
743.075	24.516
743.259	31.34868
743.443	29.66696
743.627	29.96743
743.812	37.80893
743.996	7.10557
744.18	22.12413
744.364	17.86686
744.548	41.89311
744.732	21.4287
744.916	26.68371
745.1	26.94906
745.285	19.98325
745.469	26.15295
745.653	37.16984
745.837	13.21122
746.021	38.77285
746.205	34.44732
746.389	24.27874
746.573	20.94189
746.757	34.88966
746.94	20.82547
747.124	30.41437
747.308	14.90601
747.492	31.70441
747.676	17.70775
747.86	42.45525
748.044	20.52348
748.227	9.50603
748.411	51.39924
748.595	27.08595
748.779	15.71958
748.963	26.68883
749.146	24.44939
749.33	17.73092
749.514	16.7181
749.697	32.08854
749.881	19.80501
750.065	15.59113
750.248	23.02395
750.432	42.99102
750.616	25.22909
750.799	14.32485
750.983	40.6837
751.166	46.96015
751.35	12.36827
751.533	29.9549
751.717	34.31617
751.9	35.67692
752.084	20.8593
752.267	14.38873
752.451	16.46779
752.634	24.55779
752.818	26.62462
753.001	31.41303
753.184	31.24917
753.368	26.82154
753.551	1.69363
753.734	19.33537
753.918	41.29319
754.101	18.03218
754.284	31.20487
754.467	20.17835
754.651	19.3027
754.834	17.28612
755.017	35.31376
755.2	32.1896
755.384	13.66656
755.567	30.94185
755.75	33.5721
755.933	20.70187
756.116	26.84738
756.299	19.9835
756.482	16.23869
756.665	27.04586
756.848	28.55893
757.032	26.55849
757.215	11.43915
757.398	17.15876
757.581	16.07604
757.764	47.99773
757.947	26.16364
758.129	36.09355
758.312	1.67094
758.495	21.20618
758.678	21.20517
758.861	23.47885
759.044	42.69608
759.227	19.01561
759.41	17.76
759.592	29.8656
759.775	21.89995
759.958	34.2167
760.141	12.26707
760.324	39.40843
760.506	36.02136
760.689	30.04848
760.872	45.19622
761.054	27.95135
761.237	20.84902
761.42	30.16605
761.602	31.2648
761.785	27.85472
761.968	32.49178
762.15	39.86551
762.333	24.31517
762.515	28.94044
762.698	20.32832
762.88	29.52388
763.063	25.50404
763.245	29.23001
763.428	17.35248
763.61	16.37318
763.793	13.37726
763.975	25.31411
764.158	20.8889
764.34	18.21575
764.522	15.37204
764.705	21.11095
764.887	34.34736
765.069	11.70916
765.252	28.13195
765.434	30.57243
765.616	25.51052
765.799	16.96582
765.981	29.06527
766.163	16.56355
766.345	31.4632
766.528	19.91753
766.71	6.00651
766.892	25.47207
767.074	33.79957
767.256	23.10025
767.438	39.91989
767.62	27.94619
767.802	45.78134
767.985	31.91781
768.167	41.01879
768.349	21.78591
768.531	30.80428
768.713	24.34444
768.895	37.19358
769.077	29.31168
769.259	52.49721
769.441	74.10543
769.623	36.62127
769.804	41.28978
769.986	43.61954
770.168	51.71922
770.35	63.04315
770.532	47.64693
770.714	51.27314
770.896	54.34996
771.077	18.3403
771.259	53.08845
771.441	47.39815
771.623	59.09183
771.804	77.94296
771.986	17.54655
772.168	36.3932
772.35	55.5084
772.531	72.33661
772.713	49.10761
772.894	53.65448
773.076	40.58869
773.258	33.68278
773.439	59.50913
773.621	63.26595
773.802	26.26022
773.984	40.49682
774.166	49.3859
774.347	70.4648
774.529	52.90675
774.71	12.56178
774.891	37.02856
775.073	39.05128
775.254	66.8324
775.436	34.19234
775.617	70.67963
775.799	37.43387
775.98	77.69383
776.161	71.27667
776.343	67.76798
776.524	43.5833
776.705	42.02846
776.886	21.27786
777.068	48.35337
777.249	86.90268
777.43	74.77279
777.611	28.07922
777.793	40.43722
777.974	71.7235
778.155	40.02335
778.336	35.53364
778.517	76.79273
778.698	33.79642
778.879	15.41725
779.061	0.65378
779.242	52.20693
779.423	51.16491
779.604	35.50605
779.785	38.99593
779.966	48.17939
780.147	60.98592
780.328	62.45561
780.509	85.45309
780.69	53.0356
780.871	38.37648
781.051	22.74129
781.232	47.15181
781.413	46.496
781.594	35.84988
781.775	35.39758
781.956	35.525
782.137	13.87692
782.317	33.81849
782.498	49.34279
782.679	45.70329
782.86	49.12845
783.04	30.04324
783.221	47.46351
783.402	77.43538
783.583	43.45987
783.763	56.38564
783.944	36.6383
784.124	21.39436
784.305	73.1119
784.486	54.50699
784.666	41.31333
784.847	13.49907
785.027	93.05143
785.208	30.91458
785.388	34.86823
785.569	28.80628
785.749	38.14746
785.93	34.37913
786.11	22.01452
786.291	46.77576
786.471	47.86891
786.652	56.0949
786.832	42.49938
787.012	51.742
787.193	25.30925
787.373	42.40976
787.553	34.87694
787.734	45.11676
787.914	35.94868
788.094	53.63125
788.275	47.50661
788.455	35.92277
788.635	26.07317
788.815	46.44704
788.995	25.87516
789.176	21.46183
789.356	29.99197
789.536	39.09257
789.716	50.31004
789.896	32.20968
790.076	36.81235
790.256	43.83798
790.436	12.22767
790.616	26.79768
790.796	49.22731
790.976	32.61147
791.156	33.21512
791.336	47.5413
791.516	44.60815
791.696	38.41247
791.876	19.20005
792.056	43.14209
792.236	55.14092
792.416	54.3628
792.596	50.81492
792.776	51.96844
792.956	53.28825
793.135	69.83262
793.315	25.59048
793.495	65.48703
793.675	49.48345
793.854	56.39725
794.034	61.64281
794.214	23.09651
794.394	54.88118
794.573	60.033
794.753	41.20945
794.933	29.99174
795.112	43.87874
795.292	55.93067
795.472	74.50667
795.651	25.79396
795.831	45.28355
796.01	40.25679
796.19	36.70891
796.369	36.56394
796.549	49.09206
796.728	38.26007
796.908	24.23526
797.087	25.01525
797.267	41.85762
797.446	27.32451
797.626	48.85767
797.805	47.63845
797.984	31.02109
798.164	49.70172
798.343	28.70757
798.522	46.3136
798.702	44.27501
798.881	24.63088
799.06	38.17495
799.239	13.72063
799.419	26.04269
799.598	68.95582
799.777	48.9532
799.956	57.11898
800.136	39.64611
800.315	30.36263
800.494	45.75859
800.673	58.4286
800.852	51.96471
801.031	65.56918
801.21	53.21264
801.389	34.73074
801.568	44.33195
801.747	72.62833
801.926	40.39449
802.105	67.83717
802.284	37.36409
802.463	66.24176
802.642	45.34549
802.821	47.4721
803	63.96161
803.179	56.88285
803.358	63.27396
803.537	33.46254
803.716	55.09356
803.895	32.01443
804.073	40.8332
804.252	33.09982
804.431	50.59434
804.61	43.64643
804.789	61.81722
804.967	36.62506
805.146	33.18419
805.325	82.89545
805.503	50.8117
805.682	25.98841
805.861	88.07335
806.039	65.26942
806.218	34.57209
806.397	45.36519
806.575	45.82339
806.754	49.53844
806.932	30.3811
807.111	72.24192
807.289	56.89449
807.468	49.29323
807.646	58.09353
807.825	48.01718
808.003	49.83159
808.182	58.38011
808.36	45.12709
808.539	26.42449
808.717	69.40541
808.895	33.43624
809.074	50.06984
809.252	40.97388
809.43	62.47295
809.609	68.11471
809.787	72.14146
809.965	42.64698
810.144	47.45516
810.322	37.76023
810.5	55.08596
810.678	42.28437
810.856	84.78517
811.035	64.47522
811.213	62.57349
811.391	58.4934
811.569	46.90386
811.747	108.77674
811.925	66.58273
812.103	37.23229
812.281	39.52793
812.459	86.618
812.637	87.33463
812.816	71.64569
812.994	87.78019
813.171	72.96853
813.349	65.88565
813.527	74.48458
813.705	72.62707
813.883	95.37266
814.061	66.16913
814.239	91.94804
814.417	94.45443
814.595	60.36608
814.773	53.28429
814.95	56.12896
815.128	65.16872
815.306	52.9005
815.484	48.40686
815.662	37.47932
815.839	32.30633
816.017	41.06365
816.195	67.58405
816.372	48.08023
816.55	70.21014
816.728	81.32555
816.905	54.85883
817.083	77.69536
817.261	52.45598
817.438	98.97938
817.616	88.57689
817.793	42.20867
817.971	70.04267
818.148	61.94672
818.326	74.54813
818.503	59.19469
818.681	74.17811
818.858	42.37587
819.036	51.95811
819.213	54.83048
819.391	39.31899
819.568	33.52707
819.745	29.25084
819.923	59.72202
820.1	38.33388
820.277	32.51023
820.455	40.4763
820.632	43.10683
820.809	45.83617
820.986	24.96044
821.164	19.61772
821.341	16.407
821.518	25.70511
821.695	18.55269
821.872	16.72268
822.05	14.23689
822.227	10.65336
822.404	11.17764
822.581	13.18284
822.758	10.97244
822.935	11.13773
823.112	13.70167
823.289	10.04615
823.466	13.4843
823.643	12.32136
823.82	15.48478
823.997	13.09601
824.174	16.86516
824.351	23.52871
824.528	22.0139
824.705	19.2506
824.882	20.78115
825.059	30.42395
825.236	19.69484
825.412	19.58587
825.589	26.47984
825.766	40.98247
825.943	21.5791
826.12	28.27616
826.296	16.00161
826.473	23.83468
826.65	24.91033
826.827	31.73027
827.003	19.75711
827.18	21.52025
827.357	25.3626
827.533	21.66464
827.71	9.75095
827.887	17.5795
828.063	22.4239
828.24	19.6436
828.416	26.65714
828.593	19.92409
828.769	32.45239
828.946	35.98496
829.122	36.12899
829.299	38.69627
829.475	14.23953
829.652	33.26762
829.828	62.98273
830.005	37.26685
830.181	48.52518
830.357	30.50226
830.534	57.16872
830.71	38.26961
830.886	59.69533
831.063	50.07757
831.239	74.28997
831.415	29.13718
831.592	77.80962
831.768	45.86994
831.944	35.66963
832.12	78.04015
832.296	68.77722
832.473	54.41788
832.649	38.57853
832.825	54.67636
833.001	29.0278
833.177	45.47825
833.353	42.73778
833.529	22.0167
833.705	32.97402
833.881	21.99389
834.058	21.23954
834.234	23.74423
834.41	24.66128
834.586	17.33392
834.761	22.49404
834.937	25.86579
835.113	26.92409
835.289	22.56313
835.465	29.80108
835.641	26.36495
835.817	30.18767
835.993	58.22914
836.169	24.64833
836.344	40.58851
836.52	45.6366
836.696	52.62054
836.872	29.79731
837.048	114.35093
837.223	35.10844
837.399	91.75357
837.575	75.39152
837.75	65.12836
837.926	96.08145
838.102	154.33115
838.277	103.11114
838.453	159.67695
838.628	155.45919
838.804	43.74096
838.98	150.48523
839.155	69.62508
839.331	98.03719
839.506	69.65754
839.682	61.31943
839.857	78.19889
840.033	91.66821
840.208	44.11757
840.384	21.79572
840.559	46.74157
840.734	73.40199
840.91	102.01532
841.085	60.81524
841.26	63.2134
841.436	57.60286
841.611	51.63739
841.786	84.92618
841.962	123.90765
842.137	78.06364
842.312	34.93394
842.487	65.85965
842.663	58.68599
842.838	77.86855
843.013	252.29936
843.188	125.9688
843.363	104.41737
843.538	218.57222
843.714	235.20942
843.889	218.21525
844.064	181.83922
844.239	154.45689
844.414	245.48885
844.589	162.87097
844.764	267.60211
844.939	274.68586
845.114	258.12792
845.289	307.04543
845.464	359.5998
845.639	243.49022
845.814	148.83572
845.989	179.34997
846.163	178.99293
846.338	258.69045
846.513	306.4168
846.688	211.70983
846.863	222.28959
847.038	139.02236
847.212	203.25082
847.387	218.81532
847.562	206.31604
847.737	281.72402
847.911	124.93175
848.086	138.83059
848.261	327.03438
848.435	169.26785
848.61	283.82221
848.785	153.51159
848.959	299.48901
849.134	289.41863
849.308	641.09827
849.483	224.39008
849.658	355.2474
849.832	203.43375
850.007	118.70148
850.181	469.04289
850.356	230.37192
850.53	420.03063
850.705	145.06821
850.879	105.50519
851.053	186.99596
851.228	225.78639
851.402	330.33013
851.577	295.73378
851.751	399.69158
851.925	205.35316
852.099	68.22105
852.274	175.48953
852.448	214.22141
852.622	282.81129
852.797	210.83682
852.971	233.8919
853.145	250.42798
853.319	472.0191
853.493	420.19135
853.668	238.98336
853.842	510.29203
854.016	367.50091
854.19	454.68335
854.364	219.82981
854.538	282.48522
854.712	310.08536
854.886	199.18349
855.06	206.20685
855.234	79.78713
855.408	365.16214
855.582	321.13233
855.756	498.82506
855.93	356.24083
856.104	322.65134
856.278	328.90272
856.452	227.89747
856.626	264.25874
856.8	466.52379
856.973	352.05699
857.147	347.29431
857.321	296.90966
857.495	348.33055
857.669	273.19924
857.842	257.75004
858.016	400.39781
858.19	153.59739
858.364	483.80951
858.537	239.56058
858.711	313.86501
858.885	216.28679
859.058	168.29827
859.232	125.29501
859.405	103.6424
859.579	333.8524
859.753	395.13406
859.926	185.50341
860.1	151.27565
860.273	303.2188
860.447	396.34603
860.62	238.13469
860.794	511.86212
860.967	231.8265
861.141	296.99049
861.314	495.3016
861.487	293.01572
861.661	363.438
861.834	539.65505
862.008	328.38588
862.181	335.13402
862.354	266.2339
862.528	405.11041
862.701	219.66921
862.874	137.10961
863.047	205.47068
863.221	188.50558
863.394	103.44294
863.567	294.89607
863.74	91.60907
863.913	330.68582
864.087	306.33383
864.26	360.1651
864.433	245.79565
864.606	489.14826
864.779	301.70494
864.952	104.59924
865.125	259.1378
865.298	288.70188
865.471	283.84853
865.644	440.81092
865.817	344.67726
865.99	374.35886
866.163	410.75782
866.336	185.54191
866.509	280.78726
866.682	266.45556
866.855	428.81711
867.028	115.52631
867.2	258.01017
867.373	80.86142
867.546	248.56921
867.719	495.80568
867.892	332.27197
868.064	175.87199
868.237	235.86781
868.41	258.70424
868.583	138.2997
868.755	146.4501
868.928	214.1631
869.101	536.71392
869.273	416.00278
869.446	283.69232
869.619	399.33097
869.791	331.43058
869.964	416.91041
870.136	464.02393
870.309	194.64235
870.481	272.77089
870.654	118.16891
870.826	240.88932
870.999	205.67922
871.171	374.75243
871.344	164.7859
871.516	217.01272
871.689	178.54131
871.861	259.70415
872.033	158.27333
872.206	222.27257
872.378	269.66325
872.55	248.84743
872.723	150.58154
872.895	209.58478
873.067	347.47838
873.24	274.31341
873.412	202.83307
873.584	231.80529
873.756	228.814
873.928	247.60575
874.101	241.63458
874.273	268.87026
874.445	102.75035
874.617	115.37444
874.789	199.10141
874.961	212.92013
875.133	268.90098
875.305	240.67871
875.477	161.12021
875.649	116.62443
875.821	154.4047
875.993	351.29392
876.165	236.01761
876.337	248.7005
876.509	212.24906
876.681	232.39131
876.853	217.62243
877.025	249.36966
877.197	168.4425
877.369	143.41856
877.541	267.5783
877.712	59.16191
877.884	126.64318
878.056	236.06018
878.228	130.17865
878.4	263.72962
878.571	127.80647
878.743	76.52786
878.915	187.68698
879.086	104.28808
879.258	131.59836
879.43	110.88945
879.601	102.69856
879.773	91.63964
879.945	16.75701
880.116	36.15881
880.288	21.81138
880.459	24.87512
880.631	17.1611
880.802	21.11474
880.974	20.13871
881.145	12.28982
881.317	18.21889
881.488	13.56253
881.66	15.47895
881.831	13.63389
882.002	19.1235
882.174	14.1322
882.345	18.10336
882.517	7.0107
882.688	23.01925
882.859	16.32558
883.03	31.20604
883.202	27.65991
883.373	23.16865
883.544	23.45558
883.715	42.68035
883.887	35.38869
884.058	30.02115
884.229	43.93227
884.4	47.53781
884.571	52.43979
884.742	43.66422
884.914	48.96579
885.085	81.65191
885.256	108.31904
885.427	94.13116
885.598	112.24604
885.769	110.94918
885.94	103.65294
886.111	58.05527
886.282	121.19995
886.453	110.99699
886.624	85.03224
886.795	139.69154
886.966	110.90903
887.136	145.6957
887.307	103.52164
887.478	190.6928
887.649	188.12884
887.82	188.83618
887.991	136.50402
888.161	232.89009
888.332	204.62146
888.503	120.94123
888.674	280.96463
888.844	341.47932
889.015	306.06732
889.186	149.69597
889.356	311.0426
889.527	138.86305
889.698	526.61409
889.868	196.22003
890.039	332.66
890.209	203.23832
890.38	265.27707
890.551	263.89205
890.721	364.0429
890.892	323.92853
891.062	319.68778
891.233	338.95382
891.403	262.98209
891.574	169.91381
891.744	197.06143
891.914	229.62356
892.085	325.93796
892.255	74.08025
892.425	308.79083
892.596	209.50166
892.766	285.1678
892.936	380.0179
893.107	241.2213
893.277	113.94095
893.447	95.55044
893.618	62.12307
893.788	145.66206
893.958	89.89346
894.128	64.65769
894.298	77.15713
894.468	103.23516
894.639	51.46304
894.809	26.99315
894.979	52.86968
895.149	60.55152
895.319	44.7591
895.489	70.30346
895.659	98.027
895.829	55.05207
895.999	57.05859
896.169	48.83097
896.339	68.24094
896.509	125.86227
896.679	144.99459
896.849	164.18419
897.019	226.92355
897.189	226.22661
897.358	155.85099
897.528	259.97369
897.698	129.68795
897.868	253.90455
898.038	522.25287
898.208	458.81171
898.377	142.14594
898.547	817.1973
898.717	844.80796
898.886	343.06667
899.056	540.67932
899.226	892.30204
899.395	626.29069
899.565	717.41644
899.735	445.60514
899.904	608.67409
900.074	847.80823
900.244	302.75443
900.413	1679.59113
900.583	273.4945
900.752	3696.00015
900.922	614.05448
901.091	88.55715
901.261	663.64886
901.43	520.30563
901.599	664.19332
901.769	1414.78116
901.938	698.38482
902.108	605.63408
902.277	685.96953
902.446	224.0796
902.616	303.19616
902.785	398.00822
902.954	521.25519
903.124	289.88723
903.293	208.86454
903.462	85.53083
903.631	147.11297
903.801	96.2713
903.97	45.4634
904.139	84.96869
904.308	63.01518
904.477	55.51234
904.646	28.67727
904.816	45.60133
904.985	65.87263
905.154	101.45117
