Data from WindowProjectSample_Transmission__31__00031__011820130325660216.txt Node

Date: Mon May 05 17:33:51 EDT 2025
User: jessi
Spectrometer: SR400872
Trigger mode: 0
Integration Time (sec): 5.000010E-1
Scans to average: 20
Electric dark correction enabled: true
Nonlinearity correction enabled: true
Boxcar width: 0
XAxis mode: Wavelengths
Number of Pixels in Spectrum: 3648
>>>>>Begin Spectral Data<<<<<
184.909	20750.37185
185.132	-4958.96256
185.355	-3027.89025
185.578	-17619.40402
185.801	1226.56105
186.024	9811.85929
186.247	-1811.21309
186.47	1181.2028
186.693	307.53414
186.916	252.78355
187.139	-3586.37869
187.362	3745.6892
187.585	4141.09482
187.808	3436.62468
188.031	19.88208
188.254	-54043.3478
188.476	-763.7613
188.699	39560.96877
188.922	30656.40286
189.145	-106090.71493
189.368	-23491.05171
189.591	-31558.70827
189.813	42787.3371
190.036	-623283.0216
190.259	-18304.52188
190.482	-81630.97252
190.705	51164.93575
190.927	-31668.18397
191.15	112784.92226
191.373	44507.07901
191.595	-121443.79746
191.818	-30954.68995
192.041	-351561.57606
192.263	-44414.43821
192.486	-30710.44705
192.709	-33288.04644
192.931	81118.57159
193.154	-193868.48765
193.377	-28567.02229
193.599	-51388.45873
193.822	-183064.71527
194.044	-34103.92605
194.267	29321.69435
194.489	-21593.52769
194.712	-445413.5579
194.934	-203799.59757
195.157	-33478.85949
195.379	34999.14751
195.602	-105504.16203
195.824	-16423.96641
196.047	-188886.10488
196.269	21688.58941
196.492	-98641.00067
196.714	420615.11471
196.936	-89060.86188
197.159	-17675.65112
197.381	31739.37949
197.604	30220.67566
197.826	144093.26104
198.048	-168524.06403
198.271	-34632.51503
198.493	90079.68585
198.715	29417.13885
198.938	-22041.13664
199.16	125829.41428
199.382	-859737.98692
199.604	64262.96293
199.827	-16855.85981
200.049	-53358.34081
200.271	217567.00149
200.493	15230.9906
200.715	-412173.39778
200.938	-45117.54676
201.16	-42040.1313
201.382	363892.09735
201.604	24926.57611
201.826	28045.47526
202.048	-34153.9262
202.27	-32585.91483
202.492	-405468.80341
202.715	45086.72735
202.937	-58002.56892
203.159	-76619.99224
203.381	26929.28177
203.603	90391.13143
203.825	142654.51123
204.047	32207.07954
204.269	-49843.7258
204.491	34443.43032
204.713	68543.72574
204.935	-6637706.53763
205.156	22431.85014
205.378	-52056.09684
205.6	23216.31888
205.822	1136186.55487
206.044	-48021.7753
206.266	23707.13458
206.488	113220.02931
206.71	-53028.42256
206.932	17564.95622
207.153	134817.966
207.375	-106413.97856
207.597	-256745.01546
207.819	-30876.70453
208.041	24061.16015
208.262	15775.13674
208.484	15922.23955
208.706	-17752.6805
208.927	-21820.1164
209.149	12403.89187
209.371	-30863.51757
209.593	-24505.04656
209.814	-22220.477
210.036	26049.49349
210.258	-19388.21206
210.479	44123.79459
210.701	38283.45901
210.922	51119.1953
211.144	-89498.25877
211.366	29436.60149
211.587	248510.37601
211.809	-96991.27371
212.03	41390.61342
212.252	18780.70203
212.473	40727.33027
212.695	-215721.68031
212.916	50904.15197
213.138	-26282.6975
213.359	45992.62407
213.581	86084.30454
213.802	-32261.87815
214.024	13664.08129
214.245	49930.60635
214.466	192154.27508
214.688	-41503.40171
214.909	-25579.28063
215.131	-25275.42502
215.352	-70499.46747
215.573	110527.84893
215.795	59687.51776
216.016	64042.61577
216.237	23001.9996
216.459	54815.81867
216.68	21364.63943
216.901	68157.51894
217.122	-103878.14284
217.344	-164052.03522
217.565	32740.80335
217.786	82098.47194
218.007	593704.54204
218.228	-40595.39887
218.45	85141.56678
218.671	27840.95164
218.892	747711.21313
219.113	33905.42889
219.334	44864.9107
219.555	165845.86637
219.776	44813.51334
219.997	239081.96522
220.219	72158.97979
220.44	-275686.768
220.661	14568.39002
220.882	22736.65421
221.103	-40645.3927
221.324	51865.35221
221.545	31299.10885
221.766	-132750.32142
221.987	34646.73245
222.208	53691.37546
222.429	47061.99082
222.65	67131.54522
222.87	904306.31088
223.091	19643.0773
223.312	21842.93952
223.533	38247.56719
223.754	19621.66256
223.975	27361.56718
224.196	63054.56937
224.417	32126.61307
224.637	32966.88972
224.858	37377.5945
225.079	39172.48218
225.3	24030.01749
225.521	32133.10396
225.741	22023.14244
225.962	18247.06476
226.183	17106.75697
226.404	15419.52336
226.624	16251.61165
226.845	20307.82935
227.066	16088.3325
227.286	13409.58436
227.507	12270.3313
227.728	11508.67206
227.948	11978.06704
228.169	9506.47132
228.389	9882.08862
228.61	7793.33567
228.831	6594.80389
229.051	5366.2111
229.272	4688.28512
229.492	4265.48178
229.713	4134.72274
229.933	3979.61314
230.154	4187.10186
230.374	4383.35014
230.595	4614.54728
230.815	5083.96818
231.036	5492.51687
231.256	6206.27715
231.477	6788.35726
231.697	7445.1109
231.917	7757.58675
232.138	8236.13799
232.358	8430.75941
232.579	9269.20149
232.799	8916.97218
233.019	10047.40237
233.24	9696.29613
233.46	8790.4566
233.68	9407.79045
233.901	8875.66607
234.121	8414.53218
234.341	7535.87977
234.561	7108.05705
234.782	6677.96901
235.002	6638.51488
235.222	6335.22553
235.442	6231.26511
235.662	6367.38262
235.883	6164.00087
236.103	6185.10687
236.323	6438.53629
236.543	6614.25225
236.763	6601.45014
236.983	6915.55355
237.203	6655.05026
237.423	6606.79658
237.643	6807.71873
237.864	6883.10851
238.084	6492.74799
238.304	6373.87506
238.524	7186.41772
238.744	6206.62647
238.964	6481.38492
239.184	6202.45662
239.404	5539.7813
239.624	5015.24664
239.843	4690.17526
240.063	4101.00429
240.283	3894.90053
240.503	3282.81643
240.723	3039.30379
240.943	2679.80318
241.163	2353.69418
241.383	2031.45557
241.603	1770.98955
241.822	1508.54218
242.042	1357.96963
242.262	1165.35817
242.482	1078.25094
242.702	993.09454
242.921	983.6437
243.141	933.70897
243.361	951.79993
243.581	970.2939
243.8	1065.23145
244.02	1097.30528
244.24	1212.48948
244.459	1354.28771
244.679	1544.56725
244.899	1704.62092
245.118	1863.98078
245.338	1769.58784
245.558	1718.11198
245.777	1526.15464
245.997	1345.76489
246.216	1098.84573
246.436	909.04092
246.655	746.9902
246.875	616.70168
247.094	538.17597
247.314	487.06275
247.533	467.67248
247.753	454.71679
247.972	441.83876
248.192	443.33619
248.411	455.51797
248.631	476.16612
248.85	528.66321
249.07	599.47797
249.289	686.52661
249.508	789.34223
249.728	851.62089
249.947	978.85115
250.166	1064.86486
250.386	1212.16515
250.605	1317.69976
250.824	1452.27383
251.044	1499.7939
251.263	1488.0529
251.482	1387.10845
251.701	1244.12061
251.921	1120.38606
252.14	1006.79845
252.359	944.7678
252.578	910.1075
252.798	891.65539
253.017	897.79169
253.236	939.23918
253.455	965.3244
253.674	1033.56339
253.893	1142.12083
254.112	1332.18834
254.331	1512.45871
254.551	1684.35732
254.77	1797.45742
254.989	1878.14011
255.208	1935.1365
255.427	1907.6498
255.646	1976.41163
255.865	1889.03946
256.084	1827.04895
256.303	1798.11224
256.522	1760.6032
256.741	1654.03635
256.96	1576.1645
257.179	1434.93986
257.397	1389.83405
257.616	1310.59585
257.835	1228.57066
258.054	1111.84399
258.273	1021.74483
258.492	917.63098
258.711	814.62731
258.93	708.52598
259.148	616.15587
259.367	517.91669
259.586	443.84905
259.805	378.85031
260.023	349.94685
260.242	321.42355
260.461	310.87418
260.68	306.82283
260.898	315.67378
261.117	324.34402
261.336	356.7455
261.554	382.89275
261.773	441.6755
261.992	507.61863
262.21	587.0183
262.429	656.71465
262.648	714.04985
262.866	758.25008
263.085	785.00471
263.303	797.57013
263.522	825.36856
263.74	838.92152
263.959	868.67572
264.178	913.94338
264.396	944.73386
264.615	967.48361
264.833	1026.0534
265.051	1004.80197
265.27	1000.57613
265.488	954.85824
265.707	930.69359
265.925	856.5368
266.144	811.70945
266.362	749.94475
266.58	720.28929
266.799	672.90863
267.017	635.44422
267.235	611.2148
267.454	598.2572
267.672	579.51908
267.89	581.60624
268.109	567.01502
268.327	573.86956
268.545	584.1868
268.763	595.55086
268.982	608.71752
269.2	619.99822
269.418	617.37936
269.636	622.5998
269.854	627.70837
270.073	631.06046
270.291	608.19509
270.509	604.34398
270.727	573.70678
270.945	548.49128
271.163	509.96733
271.381	496.85788
271.599	476.36672
271.817	459.18785
272.036	435.44565
272.254	424.92349
272.472	405.93947
272.69	396.37848
272.908	385.02168
273.126	392.83591
273.344	401.49973
273.562	412.63297
273.779	413.31527
273.997	423.01284
274.215	442.24458
274.433	451.31118
274.651	472.3138
274.869	495.97701
275.087	507.78925
275.305	515.75105
275.523	516.15444
275.74	525.69342
275.958	529.27282
276.176	523.42085
276.394	509.48226
276.612	511.25392
276.829	500.66122
277.047	503.58571
277.265	506.10339
277.483	513.5877
277.7	511.21841
277.918	516.3046
278.136	521.54165
278.353	530.34147
278.571	525.54345
278.789	532.48289
279.006	543.12345
279.224	532.22786
279.442	524.69755
279.659	518.13448
279.877	504.16242
280.094	499.5902
280.312	491.19346
280.529	480.17621
280.747	459.43831
280.964	450.02436
281.182	430.79915
281.399	429.934
281.617	405.50853
281.834	398.59781
282.052	388.58762
282.269	379.2961
282.487	369.18441
282.704	365.91851
282.921	364.57988
283.139	363.54046
283.356	364.3308
283.574	361.57506
283.791	362.00385
284.008	348.42605
284.226	348.07107
284.443	345.52807
284.66	329.61935
284.877	319.11104
285.095	300.30404
285.312	287.03251
285.529	272.40219
285.746	260.46237
285.964	256.72763
286.181	253.19069
286.398	250.52203
286.615	250.54731
286.832	254.0134
287.05	260.12572
287.267	263.24257
287.484	277.88032
287.701	290.66475
287.918	301.88927
288.135	304.79946
288.352	315.014
288.569	319.25205
288.786	320.76863
289.003	316.69798
289.22	311.24736
289.437	303.50029
289.654	295.73798
289.871	282.24185
290.088	276.33654
290.305	267.6562
290.522	262.92451
290.739	266.51403
290.956	265.04698
291.173	264.40055
291.39	268.41868
291.607	272.60606
291.824	278.00649
292.04	289.22722
292.257	299.2445
292.474	310.95447
292.691	323.94846
292.908	325.23846
293.125	329.2538
293.341	329.89564
293.558	327.73712
293.775	316.28755
293.992	309.50019
294.208	299.91121
294.425	295.0942
294.642	286.5676
294.858	282.63969
295.075	275.35118
295.292	273.32721
295.508	261.57528
295.725	255.23275
295.942	243.52968
296.158	236.34276
296.375	224.40062
296.591	213.23524
296.808	199.25648
297.024	188.67453
297.241	180.37135
297.458	175.46353
297.674	172.56531
297.891	174.23783
298.107	175.21507
298.323	178.23656
298.54	182.27544
298.756	192.128
298.973	202.57326
299.189	211.01088
299.406	225.35477
299.622	232.71142
299.838	243.18495
300.055	244.57414
300.271	254.33672
300.487	254.33972
300.704	255.37518
300.92	252.31845
301.136	253.57119
301.353	259.23081
301.569	259.53952
301.785	255.96124
302.001	258.25379
302.218	258.16225
302.434	263.71994
302.65	265.05291
302.866	259.85087
303.083	262.47345
303.299	265.66207
303.515	262.02218
303.731	257.67454
303.947	255.04546
304.163	254.42579
304.379	253.30501
304.595	250.45118
304.812	252.24573
305.028	253.56441
305.244	255.04556
305.46	259.89749
305.676	262.38803
305.892	268.68008
306.108	271.55277
306.324	275.60535
306.54	279.84259
306.756	282.86221
306.972	287.81495
307.187	282.44913
307.403	283.97301
307.619	277.27913
307.835	273.3452
308.051	273.28519
308.267	265.91776
308.483	258.95004
308.699	247.89491
308.914	242.25983
309.13	233.34774
309.346	225.21391
309.562	217.70959
309.778	213.83989
309.993	208.22083
310.209	204.92726
310.425	199.30971
310.641	195.83917
310.856	192.08355
311.072	185.5314
311.288	184.64965
311.503	180.76347
311.719	182.19376
311.935	183.10097
312.15	185.23768
312.366	188.74936
312.581	195.19638
312.797	201.32011
313.013	212.0565
313.228	223.79249
313.444	230.67197
313.659	245.46445
313.875	253.92947
314.09	263.70716
314.306	261.99487
314.521	260.47069
314.737	262.2942
314.952	265.10378
315.168	262.81028
315.383	261.63585
315.599	268.43603
315.814	265.84259
316.029	270.42273
316.245	275.7251
316.46	274.93816
316.675	279.87979
316.891	282.03275
317.106	283.23846
317.321	288.16303
317.537	287.30651
317.752	292.77041
317.967	290.13193
318.183	291.23229
318.398	290.47
318.613	292.14311
318.828	299.79874
319.043	297.92975
319.259	297.17389
319.474	295.03449
319.689	294.95166
319.904	293.56444
320.119	298.48167
320.334	299.71284
320.549	301.99608
320.765	305.91257
320.98	310.32995
321.195	315.89563
321.41	314.41407
321.625	318.79404
321.84	316.16704
322.055	316.96837
322.27	307.70697
322.485	307.39186
322.7	302.68649
322.915	295.88006
323.13	289.15283
323.345	278.20603
323.56	272.54899
323.775	262.73783
323.989	260.84358
324.204	255.04059
324.419	251.57144
324.634	248.49759
324.849	244.63384
325.064	249.11001
325.279	243.4641
325.493	247.11568
325.708	249.23305
325.923	245.04081
326.138	247.015
326.352	246.88966
326.567	245.91285
326.782	247.49589
326.997	245.02525
327.211	248.04498
327.426	252.5863
327.641	254.62218
327.855	255.21721
328.07	266.68118
328.285	272.33234
328.499	278.09129
328.714	284.66573
328.928	287.01314
329.143	290.35158
329.358	292.58255
329.572	293.37693
329.787	292.95529
330.001	295.30419
330.216	295.52139
330.43	296.82584
330.645	293.47664
330.859	293.16225
331.074	292.82387
331.288	293.34143
331.503	292.64328
331.717	290.50557
331.931	285.38968
332.146	283.52605
332.36	285.63959
332.575	277.40125
332.789	277.33633
333.003	279.28237
333.218	277.24348
333.432	278.15583
333.646	282.78733
333.86	285.46758
334.075	290.92473
334.289	296.80002
334.503	300.81334
334.717	303.09995
334.932	305.37034
335.146	296.34615
335.36	295.05717
335.574	287.59803
335.788	284.862
336.003	283.248
336.217	279.81544
336.431	269.93508
336.645	262.3984
336.859	257.35203
337.073	254.27422
337.287	250.33268
337.501	244.9687
337.715	241.23355
337.929	233.37124
338.143	228.34382
338.357	229.54176
338.571	227.25889
338.785	228.34164
338.999	232.2622
339.213	238.03156
339.427	241.71855
339.641	247.62353
339.855	249.69583
340.069	253.39209
340.283	251.52621
340.497	254.79077
340.711	254.26675
340.924	254.12184
341.138	246.39977
341.352	245.33682
341.566	241.36354
341.78	241.90346
341.993	241.8065
342.207	239.34173
342.421	240.90193
342.635	238.10507
342.848	240.25208
343.062	240.96069
343.276	242.62739
343.49	243.35939
343.703	240.68423
343.917	234.85139
344.131	237.67777
344.344	232.80087
344.558	227.1095
344.771	225.20771
344.985	221.25969
345.199	218.87242
345.412	214.72267
345.626	217.38279
345.839	213.86662
346.053	218.5846
346.266	219.48065
346.48	220.91823
346.693	222.65706
346.907	232.72058
347.12	230.72568
347.334	239.20694
347.547	243.02406
347.76	250.57426
347.974	251.32082
348.187	255.5399
348.401	260.33509
348.614	258.82294
348.827	258.79779
349.041	254.16437
349.254	249.9131
349.467	252.33404
349.681	245.15253
349.894	243.37131
350.107	236.69725
350.32	239.17198
350.534	238.8714
350.747	234.50119
350.96	235.57162
351.173	234.56048
351.386	238.0838
351.6	240.88068
351.813	242.91474
352.026	244.99314
352.239	244.65563
352.452	243.68953
352.665	244.21181
352.878	239.02895
353.092	237.23405
353.305	235.32728
353.518	234.21736
353.731	228.72336
353.944	230.47908
354.157	228.84216
354.37	221.24743
354.583	224.61195
354.796	215.12832
355.009	218.79215
355.222	213.84258
355.435	211.8117
355.647	206.60868
355.86	210.72439
356.073	204.74384
356.286	204.41334
356.499	197.91913
356.712	193.32386
356.925	191.11916
357.138	188.34625
357.35	181.70483
357.563	183.28714
357.776	178.62998
357.989	181.17042
358.201	180.4293
358.414	179.41045
358.627	180.23601
358.84	183.95233
359.052	184.97436
359.265	185.26265
359.478	186.2984
359.69	185.62604
359.903	182.95098
360.116	177.55901
360.328	170.79758
360.541	167.57904
360.753	161.40047
360.966	154.6895
361.179	146.60991
361.391	141.99029
361.604	135.36679
361.816	133.2567
362.029	132.867
362.241	133.65431
362.454	136.43386
362.666	138.56321
362.879	143.47171
363.091	146.07563
363.304	151.82644
363.516	157.65102
363.728	165.24358
363.941	170.6914
364.153	175.52922
364.366	173.46367
364.578	176.80451
364.79	179.52125
365.003	180.63555
365.215	179.6491
365.427	182.36138
365.639	183.1328
365.852	185.85522
366.064	187.73207
366.276	188.29432
366.488	188.41427
366.701	186.14014
366.913	187.79516
367.125	186.90823
367.337	189.80811
367.549	188.5936
367.762	191.25872
367.974	194.35372
368.186	196.8843
368.398	201.69561
368.61	204.44612
368.822	205.13056
369.034	207.24415
369.246	210.76495
369.458	211.5992
369.67	207.43133
369.882	210.89297
370.094	207.20487
370.306	207.8238
370.518	203.61203
370.73	198.43848
370.942	194.47904
371.154	192.36537
371.366	190.21047
371.578	190.24096
371.79	188.05714
372.002	186.73452
372.214	185.31723
372.425	186.64496
372.637	187.4922
372.849	193.78162
373.061	194.80931
373.273	199.92033
373.484	203.70003
373.696	207.64679
373.908	207.27095
374.12	208.08729
374.331	208.19193
374.543	207.13554
374.755	208.12158
374.967	207.71443
375.178	198.91517
375.39	205.33144
375.602	198.6737
375.813	197.52738
376.025	194.59914
376.236	191.76676
376.448	188.4855
376.66	185.82379
376.871	180.15283
377.083	179.73806
377.294	176.80761
377.506	176.3809
377.717	175.13223
377.929	174.02463
378.14	176.67369
378.352	177.83564
378.563	180.24384
378.775	181.54924
378.986	187.19055
379.197	192.07127
379.409	193.50381
379.62	195.72001
379.832	197.08458
380.043	197.30734
380.254	193.28564
380.466	196.50477
380.677	197.15532
380.888	193.61706
381.1	190.77592
381.311	194.09872
381.522	192.02365
381.733	196.12488
381.945	196.45705
382.156	198.17506
382.367	200.48326
382.578	198.16816
382.789	196.56291
383.001	197.65553
383.212	196.90525
383.423	195.43687
383.634	189.76831
383.845	188.28476
384.056	184.45951
384.267	185.99476
384.478	184.96365
384.69	179.90694
384.901	179.68117
385.112	182.68885
385.323	179.52811
385.534	179.66305
385.745	178.96024
385.956	178.14054
386.167	179.95141
386.378	181.00209
386.588	180.67753
386.799	178.45718
387.01	181.1332
387.221	180.7987
387.432	180.19636
387.643	184.05658
387.854	180.43925
388.065	181.46166
388.275	182.60035
388.486	185.62447
388.697	184.87347
388.908	185.77588
389.119	186.47412
389.329	191.57151
389.54	187.88981
389.751	186.14211
389.962	187.98939
390.172	182.4383
390.383	182.56316
390.594	176.10283
390.804	172.10036
391.015	172.82989
391.226	165.4254
391.436	162.95253
391.647	158.71754
391.858	160.0386
392.068	158.84573
392.279	156.85105
392.489	156.85807
392.7	158.70439
392.91	157.33032
393.121	161.57777
393.331	161.71135
393.542	162.15647
393.752	161.07265
393.963	159.19281
394.173	157.13025
394.384	160.46578
394.594	156.15034
394.804	157.4503
395.015	157.66291
395.225	162.71581
395.436	162.76459
395.646	167.05171
395.856	168.73324
396.067	172.06292
396.277	176.85576
396.487	182.49011
396.697	179.55302
396.908	184.22112
397.118	186.47194
397.328	187.05088
397.538	186.16156
397.749	184.1688
397.959	184.2833
398.169	183.48493
398.379	177.46967
398.589	179.65631
398.8	176.01682
399.01	176.88147
399.22	179.16491
399.43	177.75088
399.64	178.04703
399.85	180.62529
400.06	178.19282
400.27	179.52834
400.48	183.79436
400.69	184.92238
400.9	183.12759
401.11	188.22337
401.32	188.7253
401.53	186.09992
401.74	187.61075
401.95	188.17079
402.16	184.80022
402.37	189.71038
402.58	179.24167
402.79	178.89184
403	176.5292
403.209	174.44653
403.419	168.04632
403.629	167.44959
403.839	164.23747
404.049	159.2531
404.258	157.18268
404.468	155.4438
404.678	153.29742
404.888	152.57175
405.097	151.26703
405.307	153.95994
405.517	152.4936
405.727	158.8231
405.936	154.42049
406.146	157.30444
406.356	159.47041
406.565	161.82419
406.775	163.9773
406.984	166.3508
407.194	169.55471
407.404	174.37321
407.613	173.3965
407.823	177.7797
408.032	182.39509
408.242	181.32367
408.451	178.86504
408.661	180.25564
408.87	183.59462
409.08	180.98653
409.289	177.2737
409.499	176.29784
409.708	172.31
409.918	170.02866
410.127	170.45641
410.336	163.29266
410.546	166.68328
410.755	163.61965
410.964	164.80505
411.174	165.89971
411.383	168.35341
411.592	170.9586
411.802	172.06957
412.011	178.38764
412.22	176.67959
412.429	179.4962
412.639	182.4001
412.848	182.4258
413.057	181.70799
413.266	184.64272
413.475	183.31246
413.685	181.78607
413.894	180.93968
414.103	181.32513
414.312	174.94472
414.521	175.96454
414.73	171.37022
414.939	170.74894
415.148	165.88191
415.357	158.37684
415.566	156.24098
415.776	156.17299
415.985	149.78326
416.194	145.69624
416.403	140.04555
416.611	137.28738
416.82	134.59602
417.029	131.22179
417.238	126.60932
417.447	124.71232
417.656	118.3486
417.865	114.78062
418.074	114.19016
418.283	106.23269
418.492	102.95276
418.7	103.01953
418.909	98.88555
419.118	98.88825
419.327	98.83526
419.536	98.78378
419.744	98.60952
419.953	98.60991
420.162	98.60907
420.371	98.61047
420.579	98.60964
420.788	98.60993
420.997	98.60919
421.205	98.61032
421.414	98.6099
421.623	98.60965
421.831	98.60974
422.04	98.60918
422.249	98.60928
422.457	98.61035
422.666	98.6092
422.874	98.60982
423.083	98.60973
423.291	98.61079
423.5	98.60967
423.708	98.61055
423.917	98.60933
424.125	98.61037
424.334	98.60956
424.542	98.60961
424.751	98.61016
424.959	98.60935
425.167	98.60983
425.376	98.61017
425.584	98.60951
425.793	98.60973
426.001	98.60961
426.209	98.72521
426.418	98.83846
426.626	101.09886
426.834	104.54107
427.042	109.47711
427.251	111.40441
427.459	113.71218
427.667	122.21137
427.875	126.28759
428.084	127.51425
428.292	133.54464
428.5	133.229
428.708	137.95826
428.916	137.86791
429.124	139.14378
429.333	137.61583
429.541	138.4202
429.749	135.50795
429.957	134.596
430.165	134.24553
430.373	136.41668
430.581	138.66883
430.789	135.41687
430.997	135.31645
431.205	134.30346
431.413	131.68152
431.621	132.33962
431.829	128.73991
432.037	120.85942
432.245	123.52064
432.453	118.52033
432.661	115.27631
432.869	112.15154
433.076	108.53155
433.284	106.37863
433.492	104.0839
433.7	104.5125
433.908	103.88411
434.116	102.86901
434.323	107.56863
434.531	106.2189
434.739	110.55147
434.947	113.90916
435.154	115.94047
435.362	120.78605
435.57	122.15218
435.778	122.13236
435.985	125.55761
436.193	125.14652
436.401	123.37794
436.608	126.23285
436.816	130.02161
437.023	123.96137
437.231	124.94792
437.439	118.51902
437.646	118.43792
437.854	119.7437
438.061	119.24586
438.269	112.52817
438.476	113.59051
438.684	111.197
438.891	104.91321
439.099	104.46128
439.306	101.9246
439.514	101.16949
439.721	98.90893
439.929	98.8101
440.136	98.69322
440.343	98.60982
440.551	98.61014
440.758	98.60945
440.965	98.60973
441.173	98.60997
441.38	98.6097
441.587	98.83084
441.795	98.7639
442.002	99.11007
442.209	100.4611
442.416	104.33196
442.624	106.86804
442.831	110.15041
443.038	112.19646
443.245	114.25098
443.452	118.36994
443.66	114.89939
443.867	113.84637
444.074	112.92685
444.281	108.21444
444.488	106.15928
444.695	103.8618
444.902	99.52671
445.109	98.81059
445.316	98.65984
445.523	98.60906
445.73	98.60995
445.937	98.60969
446.144	98.60977
446.351	98.60959
446.558	98.61066
446.765	98.60922
446.972	98.61014
447.179	98.60983
447.386	98.60911
447.593	98.61042
447.8	98.60955
448.007	98.60952
448.214	98.73736
448.42	98.85984
448.627	100.07922
448.834	101.52562
449.041	103.67702
449.248	108.12524
449.454	114.31834
449.661	116.74677
449.868	121.85465
450.075	122.51737
450.281	127.8915
450.488	131.70937
450.695	133.91211
450.901	130.90844
451.108	132.16377
451.315	133.10665
451.521	132.30278
451.728	126.40735
451.935	129.17463
452.141	126.30837
452.348	123.71174
452.554	126.60892
452.761	122.56153
452.967	122.71204
453.174	121.29311
453.38	123.70928
453.587	125.53621
453.793	124.86001
454	128.58886
454.206	130.18386
454.413	132.5484
454.619	133.37856
454.825	131.52606
455.032	136.30633
455.238	138.92391
455.445	136.64632
455.651	138.52109
455.857	140.23783
456.064	137.74566
456.27	139.18152
456.476	141.58348
456.682	142.31475
456.889	140.00753
457.095	142.49086
457.301	140.95582
457.507	136.33535
457.714	133.47671
457.92	130.16756
458.126	125.18999
458.332	117.6329
458.538	111.82071
458.744	106.11089
458.951	99.84234
459.157	98.772
459.363	98.60974
459.569	98.60954
459.775	98.61017
459.981	98.60947
460.187	98.60967
460.393	98.60977
460.599	98.60999
460.805	98.60991
461.011	98.65832
461.217	98.97307
461.423	105.55364
461.629	108.2552
461.835	115.34346
462.041	121.86248
462.247	128.69893
462.453	134.66094
462.658	141.42435
462.864	141.22964
463.07	144.29352
463.276	144.76735
463.482	144.0713
463.688	145.50512
463.893	147.01887
464.099	146.24157
464.305	149.19069
464.511	143.26125
464.716	143.23416
464.922	147.10459
465.128	142.04121
465.333	142.76063
465.539	144.02136
465.745	140.362
465.95	144.57173
466.156	141.75031
466.362	137.71374
466.567	144.14088
466.773	142.2562
466.978	142.36661
467.184	135.13083
467.389	137.78424
467.595	140.17576
467.8	138.59832
468.006	137.41091
468.211	141.30233
468.417	141.01576
468.622	146.55844
468.828	147.88136
469.033	145.73851
469.239	148.43452
469.444	147.09116
469.649	148.00713
469.855	149.79276
470.06	149.78837
470.266	148.93857
470.471	147.26917
470.676	149.93114
470.881	151.37381
471.087	151.82667
471.292	149.23629
471.497	150.3527
471.703	153.7195
471.908	152.59367
472.113	147.0294
472.318	148.98361
472.523	147.03666
472.729	148.74301
472.934	149.79153
473.139	148.17813
473.344	149.07796
473.549	146.48048
473.754	147.31638
473.959	146.01304
474.164	148.43483
474.369	152.40437
474.575	156.42716
474.78	153.64105
474.985	155.07986
475.19	154.66796
475.395	151.08953
475.6	148.29483
475.804	146.68649
476.009	145.30574
476.214	142.4929
476.419	138.28912
476.624	136.36427
476.829	134.44605
477.034	131.47959
477.239	129.20992
477.444	128.55767
477.648	125.91661
477.853	125.16142
478.058	124.6532
478.263	122.92296
478.468	124.73204
478.672	125.22569
478.877	122.22841
479.082	125.94405
479.287	124.03722
479.491	125.39746
479.696	125.09602
479.901	125.33
480.105	121.70817
480.31	120.7712
480.515	118.58336
480.719	114.07152
480.924	110.06767
481.128	105.61472
481.333	102.90024
481.538	100.13993
481.742	98.78736
481.947	98.61034
482.151	98.60985
482.356	98.61009
482.56	98.60975
482.765	98.61015
482.969	98.60983
483.174	98.60971
483.378	98.60931
483.582	98.6099
483.787	98.60964
483.991	98.60919
484.196	98.60999
484.4	98.60997
484.604	98.60976
484.809	98.6104
485.013	98.60943
485.217	98.60994
485.422	98.6098
485.626	98.61044
485.83	98.60957
486.034	98.60921
486.239	98.60983
486.443	98.61079
486.647	98.60936
486.851	98.61031
487.055	98.61003
487.26	98.61019
487.464	98.60901
487.668	98.60991
487.872	98.60997
488.076	98.6098
488.28	98.6098
488.484	98.60977
488.688	98.60987
488.892	98.60989
489.096	98.60954
489.3	98.61025
489.504	98.60978
489.708	98.60944
489.912	98.60958
490.116	98.61022
490.32	98.60968
490.524	98.60959
490.728	98.61061
490.932	98.60981
491.136	98.6098
491.34	98.6105
491.544	98.60912
491.748	98.61006
491.951	98.60997
492.155	98.60979
492.359	98.60906
492.563	98.61002
492.767	98.60939
492.97	98.60973
493.174	98.61038
493.378	98.61028
493.582	98.73162
493.785	99.34294
493.989	103.66321
494.193	109.38087
494.396	114.53127
494.6	116.54299
494.804	118.67295
495.007	119.63294
495.211	119.07872
495.414	118.79924
495.618	115.21852
495.822	112.65224
496.025	109.33962
496.229	107.51486
496.432	104.25172
496.636	102.49913
496.839	101.17118
497.043	99.86939
497.246	99.6068
497.45	99.45488
497.653	99.73224
497.856	101.62331
498.06	102.14243
498.263	105.27155
498.467	107.52421
498.67	108.99661
498.873	110.9854
499.077	113.83296
499.28	115.57941
499.483	117.28575
499.686	119.45753
499.89	121.08152
500.093	125.13033
500.296	127.40724
500.499	130.44492
500.703	132.52708
500.906	132.86337
501.109	135.76049
501.312	137.86399
501.515	138.67753
501.719	138.34808
501.922	139.39587
502.125	140.81997
502.328	141.42262
502.531	140.42287
502.734	141.52181
502.937	138.39488
503.14	139.38143
503.343	136.33665
503.546	136.16269
503.749	133.06513
503.952	133.68672
504.155	132.19196
504.358	133.03853
504.561	130.83032
504.764	130.9463
504.967	132.28546
505.17	134.87387
505.373	134.95996
505.576	137.84651
505.778	138.08165
505.981	138.44282
506.184	139.60544
506.387	140.35785
506.59	138.00004
506.793	137.90557
506.995	136.20028
507.198	133.91904
507.401	132.08396
507.604	129.47007
507.806	126.36063
508.009	124.36291
508.212	122.10143
508.414	119.90607
508.617	117.85394
508.82	117.43864
509.022	116.0934
509.225	117.13593
509.427	115.03181
509.63	116.82695
509.833	117.56968
510.035	117.14846
510.238	119.95426
510.44	119.06057
510.643	120.09991
510.845	121.77525
511.048	120.85547
511.25	121.50514
511.453	121.41349
511.655	120.70278
511.858	120.58665
512.06	121.37601
512.262	121.28451
512.465	120.34393
512.667	122.79109
512.869	124.17515
513.072	124.99783
513.274	127.91833
513.476	129.32258
513.679	133.0063
513.881	135.17713
514.083	138.54656
514.286	139.94469
514.488	141.48023
514.69	144.56944
514.892	145.46656
515.094	145.59277
515.297	147.54851
515.499	146.21531
515.701	148.14367
515.903	144.94079
516.105	144.86696
516.307	141.98013
516.509	139.41249
516.711	133.67162
516.913	132.23578
517.116	125.09539
517.318	120.05451
517.52	114.80821
517.722	109.15976
517.924	104.58787
518.126	101.3082
518.328	99.03003
518.529	98.95441
518.731	98.92843
518.933	98.95026
519.135	98.92737
519.337	99.00019
519.539	100.47673
519.741	103.12719
519.943	109.14821
520.145	113.23056
520.346	116.58215
520.548	122.70459
520.75	124.89361
520.952	128.59867
521.153	131.53622
521.355	134.49507
521.557	137.5566
521.759	138.67831
521.96	139.71736
522.162	143.24541
522.364	140.42011
522.565	142.80995
522.767	141.78751
522.969	142.17856
523.17	140.41915
523.372	139.33808
523.573	136.74629
523.775	135.69881
523.977	131.2168
524.178	127.29853
524.38	120.65826
524.581	115.10331
524.783	109.24559
524.984	103.52592
525.186	99.44542
525.387	98.88755
525.589	98.72568
525.79	98.6271
525.991	98.60988
526.193	98.61038
526.394	98.60986
526.596	98.61097
526.797	98.60991
526.998	98.6096
527.2	98.60998
527.401	98.6101
527.602	98.60956
527.803	98.60941
528.005	98.60997
528.206	98.60925
528.407	98.60984
528.608	98.60975
528.81	98.60964
529.011	98.61
529.212	98.60923
529.413	98.61
529.614	98.61002
529.815	98.60986
530.017	98.60984
530.218	98.60984
530.419	98.60948
530.62	98.61082
530.821	98.61011
531.022	98.60999
531.223	98.6094
531.424	98.60989
531.625	98.60962
531.826	98.60921
532.027	98.60984
532.228	98.60984
532.429	98.60973
532.63	98.60998
532.831	98.60995
533.032	98.61008
533.233	98.60968
533.433	98.61092
533.634	98.6099
533.835	98.61027
534.036	98.60967
534.237	98.61008
534.438	98.60964
534.638	98.61027
534.839	98.60977
535.04	98.73211
535.241	98.846
535.441	98.91876
535.642	98.91411
535.843	98.85622
536.043	98.70305
536.244	98.63351
536.445	98.60966
536.645	98.60992
536.846	98.60999
537.047	98.60933
537.247	98.61023
537.448	98.79389
537.648	98.96226
537.849	101.87796
538.049	107.21037
538.25	114.76575
538.451	118.189
538.651	122.60536
538.851	123.61612
539.052	124.23384
539.252	122.7712
539.453	118.96788
539.653	114.46491
539.854	106.71808
540.054	99.11683
540.254	98.61013
540.455	98.60975
540.655	98.61012
540.855	98.61006
541.056	98.61014
541.256	98.61008
541.456	98.6096
541.657	98.61014
541.857	98.60928
542.057	98.60984
542.257	98.61004
542.458	98.60983
542.658	98.60992
542.858	98.61056
543.058	98.60981
543.258	98.60982
543.458	98.61014
543.659	98.60983
543.859	98.75077
544.059	98.95023
544.259	100.0401
544.459	103.98574
544.659	107.29988
544.859	110.07465
545.059	112.41415
545.259	113.0526
545.459	114.5132
545.659	112.06814
545.859	111.38094
546.059	109.43237
546.259	108.66833
546.459	106.57892
546.659	107.54524
546.859	109.5704
547.059	109.78232
547.258	112.21778
547.458	115.08282
547.658	118.70401
547.858	124.48241
548.058	131.21607
548.258	139.43281
548.457	146.32813
548.657	154.70057
548.857	161.18413
549.057	168.85644
549.256	171.8164
549.456	177.77717
549.656	182.20151
549.855	184.25495
550.055	186.39898
550.255	187.61982
550.454	188.23139
550.654	191.17183
550.853	187.76944
551.053	189.09258
551.253	184.87637
551.452	182.94968
551.652	176.74415
551.851	173.68546
552.051	169.58664
552.25	165.286
552.45	160.88425
552.649	161.2046
552.849	159.03008
553.048	160.36513
553.248	159.56904
553.447	162.47438
553.646	165.24332
553.846	170.59879
554.045	174.3477
554.244	181.36922
554.444	185.68667
554.643	189.71394
554.842	192.81649
555.042	198.33318
555.241	201.1234
555.44	204.10636
555.64	204.19092
555.839	206.47903
556.038	207.22737
556.237	207.27921
556.436	209.03424
556.636	208.4774
556.835	210.69606
557.034	212.55782
557.233	212.85073
557.432	212.73172
557.631	213.66298
557.83	214.70536
558.029	216.64171
558.228	218.04631
558.427	220.70507
558.626	219.7719
558.825	220.98806
559.024	222.87345
559.223	222.95151
559.422	220.78127
559.621	221.46788
559.82	220.21945
560.019	217.51661
560.218	215.36542
560.417	213.60756
560.616	210.8134
560.815	209.72071
561.014	206.19654
561.212	205.75382
561.411	207.25633
561.61	204.18069
561.809	208.0741
562.008	207.18937
562.206	210.5813
562.405	210.49921
562.604	216.3748
562.803	215.84701
563.001	217.43479
563.2	221.3466
563.399	219.17135
563.597	220.03938
563.796	218.8207
563.995	218.12199
564.193	214.21284
564.392	209.88511
564.59	207.39871
564.789	198.57965
564.988	195.95542
565.186	187.58154
565.385	181.98468
565.583	175.21666
565.782	170.04729
565.98	168.02208
566.179	165.56811
566.377	163.83752
566.575	165.56597
566.774	164.93065
566.972	170.2862
567.171	171.91903
567.369	177.52886
567.567	184.16917
567.766	188.5137
567.964	194.52378
568.162	199.60765
568.361	201.51914
568.559	202.03758
568.757	203.28862
568.956	206.18387
569.154	203.36134
569.352	203.98304
569.55	202.90417
569.748	201.77134
569.947	196.96968
570.145	198.38677
570.343	193.20758
570.541	191.30709
570.739	185.33342
570.937	180.49698
571.135	178.52796
571.333	171.3764
571.532	170.22526
571.73	165.53774
571.928	163.355
572.126	161.1804
572.324	162.61171
572.522	163.46406
572.72	165.84053
572.918	169.59094
573.116	172.09288
573.313	175.61631
573.511	178.50599
573.709	182.83406
573.907	183.67722
574.105	183.10586
574.303	183.40721
574.501	183.28455
574.699	180.16456
574.896	180.31177
575.094	178.77149
575.292	180.37892
575.49	181.11617
575.688	184.68343
575.885	185.7451
576.083	191.34449
576.281	193.13931
576.478	199.0005
576.676	203.28095
576.874	211.56838
577.071	213.35636
577.269	218.93296
577.467	221.85837
577.664	227.30167
577.862	232.23674
578.059	237.22991
578.257	240.11939
578.455	246.5755
578.652	250.45096
578.85	255.56713
579.047	256.29927
579.245	263.61979
579.442	264.74455
579.64	268.12789
579.837	266.87568
580.034	273.53593
580.232	270.53017
580.429	274.96376
580.627	275.56727
580.824	276.28238
581.021	274.0711
581.219	277.87415
581.416	278.36701
581.613	279.45104
581.811	279.52623
582.008	282.94071
582.205	282.28872
582.402	286.08034
582.6	285.31081
582.797	289.48774
582.994	286.34262
583.191	290.77358
583.388	289.02334
583.586	291.08484
583.783	293.48508
583.98	293.89096
584.177	292.51185
584.374	296.39393
584.571	296.90151
584.768	297.92848
584.965	298.00769
585.162	297.51617
585.359	297.63157
585.556	300.74215
585.753	296.15385
585.95	298.34461
586.147	298.54459
586.344	301.24123
586.541	299.74771
586.738	299.23247
586.935	297.49025
587.132	296.84559
587.329	292.99883
587.526	298.00746
587.722	288.12079
587.919	287.51907
588.116	285.30734
588.313	281.52987
588.51	277.74208
588.706	276.27281
588.903	272.30916
589.1	269.74266
589.297	267.66946
589.493	262.61037
589.69	263.35592
589.887	264.54737
590.083	264.66949
590.28	263.777
590.477	267.12086
590.673	270.22631
590.87	272.70393
591.067	277.57397
591.263	282.80168
591.46	285.82866
591.656	290.61275
591.853	291.52308
592.049	296.53146
592.246	297.6553
592.442	298.6322
592.639	300.42559
592.835	295.09829
593.032	297.21585
593.228	287.54855
593.425	287.42576
593.621	282.2248
593.817	279.08096
594.014	275.26323
594.21	272.62142
594.406	271.02894
594.603	268.85815
594.799	264.97454
594.995	265.28673
595.192	260.90203
595.388	257.30186
595.584	252.30188
595.78	244.42762
595.977	236.00403
596.173	226.16734
596.369	215.74468
596.565	211.02427
596.761	206.13906
596.957	204.05936
597.154	205.64171
597.35	204.65685
597.546	208.39583
597.742	215.85017
597.938	223.7087
598.134	235.75646
598.33	249.65237
598.526	262.50779
598.722	277.4405
598.918	286.81449
599.114	300.6421
599.31	305.7219
599.506	315.41149
599.702	317.25698
599.898	322.31871
600.094	325.71506
600.29	326.09031
600.485	326.44514
600.681	323.35457
600.877	325.06669
601.073	324.51554
601.269	321.86048
601.465	317.22647
601.66	314.42022
601.856	302.25643
602.052	297.59546
602.248	284.31317
602.443	274.49068
602.639	260.05828
602.835	253.65835
603.03	244.02706
603.226	234.67425
603.422	225.94248
603.617	215.63127
603.813	206.42718
604.009	199.81463
604.204	196.05086
604.4	193.19682
604.595	192.54522
604.791	194.94456
604.986	196.34152
605.182	198.87178
605.377	202.54704
605.573	211.46955
605.768	221.90749
605.964	233.50129
606.159	245.48056
606.355	259.97843
606.55	269.57568
606.746	281.99032
606.941	289.45966
607.136	293.25356
607.332	298.35203
607.527	298.03443
607.722	294.84359
607.918	290.15723
608.113	279.18545
608.308	267.26383
608.503	256.20783
608.699	244.98037
608.894	235.93214
609.089	228.73439
609.284	224.49815
609.479	219.0698
609.675	217.11476
609.87	218.29053
610.065	219.49454
610.26	225.35568
610.455	235.81383
610.65	243.17376
610.845	255.26027
611.04	266.69987
611.235	274.68592
611.43	288.17875
611.625	295.46171
611.82	303.98335
612.015	313.76071
612.21	322.34444
612.405	324.10958
612.6	330.94597
612.795	339.55437
612.99	344.35451
613.185	344.56061
613.38	350.09022
613.575	353.65443
613.77	353.93051
613.965	359.32799
614.159	364.65548
614.354	363.30462
614.549	363.48703
614.744	368.17273
614.938	368.73262
615.133	368.87756
615.328	370.70776
615.523	375.39937
615.717	374.30665
615.912	373.56339
616.107	374.0569
616.301	377.83481
616.496	375.14757
616.691	371.918
616.885	370.98622
617.08	374.37889
617.274	372.85294
617.469	369.11308
617.664	369.26439
617.858	370.23809
618.053	371.60072
618.247	366.76661
618.442	373.85475
618.636	370.25735
618.831	373.31876
619.025	373.19723
619.219	379.12494
619.414	376.94539
619.608	379.93792
619.803	385.80287
619.997	381.39262
620.191	385.93232
620.386	389.28645
620.58	387.7908
620.774	393.46987
620.969	394.44867
621.163	396.27285
621.357	394.59153
621.551	400.23687
621.746	399.2207
621.94	401.5689
622.134	403.30973
622.328	399.09539
622.522	406.08884
622.716	404.81468
622.911	402.66804
623.105	400.81032
623.299	404.37184
623.493	405.2605
623.687	402.52478
623.881	403.03077
624.075	396.22203
624.269	399.41476
624.463	395.14668
624.657	393.51637
624.851	380.97062
625.045	375.65841
625.239	367.30423
625.433	356.7211
625.627	345.36251
625.821	335.50845
626.015	321.81556
626.209	316.23463
626.403	305.51652
626.596	300.97178
626.79	297.23444
626.984	294.09492
627.178	295.33081
627.372	300.122
627.565	303.64309
627.759	311.61745
627.953	317.28119
628.147	327.0656
628.34	334.18701
628.534	343.7802
628.728	352.17365
628.921	361.06582
629.115	367.31444
629.309	374.89602
629.502	376.69402
629.696	386.28561
629.89	386.48543
630.083	395.97835
630.277	395.33772
630.47	402.67417
630.664	408.49945
630.857	411.00063
631.051	417.97522
631.244	422.77684
631.438	427.82236
631.631	429.39139
631.825	430.4103
632.018	431.44933
632.212	430.80892
632.405	429.7551
632.598	424.16902
632.792	418.9166
632.985	414.38275
633.178	405.46636
633.372	397.55205
633.565	394.43988
633.758	386.14303
633.952	383.73591
634.145	386.46309
634.338	384.81275
634.531	381.17868
634.724	390.80139
634.918	394.79054
635.111	400.78389
635.304	408.83198
635.497	415.17248
635.69	416.24531
635.883	426.98774
636.077	430.65437
636.27	442.86565
636.463	438.76384
636.656	445.99798
636.849	444.00725
637.042	448.13254
637.235	460.22108
637.428	459.50509
637.621	463.5114
637.814	463.2707
638.007	477.13619
638.2	476.15414
638.393	485.71773
638.586	490.75851
638.778	489.7078
638.971	497.95855
639.164	495.35414
639.357	508.49894
639.55	505.58919
639.743	509.06704
639.935	513.45876
640.128	515.51971
640.321	521.195
640.514	524.92754
640.707	525.03584
640.899	529.94764
641.092	533.73326
641.285	535.45915
641.477	533.65804
641.67	542.70341
641.863	546.14328
642.055	545.99528
642.248	546.73466
642.441	551.03655
642.633	556.53275
642.826	561.35752
643.018	559.62694
643.211	558.44963
643.403	557.99889
643.596	565.08174
643.788	566.05294
643.981	565.8314
644.173	560.71222
644.366	567.61267
644.558	570.90397
644.751	571.35265
644.943	568.91597
645.135	576.41014
645.328	565.38974
645.52	573.316
645.712	565.58237
645.905	573.32355
646.097	564.42014
646.289	570.14807
646.482	565.75673
646.674	567.67689
646.866	567.72039
647.058	566.3696
647.251	562.85081
647.443	567.16485
647.635	560.99671
647.827	573.36677
648.019	565.17484
648.211	565.07768
648.404	565.7218
648.596	568.67427
648.788	568.21595
648.98	565.96067
649.172	571.02972
649.364	560.55738
649.556	561.31235
649.748	555.28751
649.94	552.83781
650.132	553.05742
650.324	547.42165
650.516	543.69683
650.708	531.3947
650.9	545.09168
651.092	526.65216
651.284	532.772
651.476	527.60718
651.667	528.44494
651.859	529.98309
652.051	531.39729
652.243	533.27633
652.435	537.1678
652.627	543.30779
652.818	545.90808
653.01	556.262
653.202	561.2903
653.394	570.16231
653.585	571.48652
653.777	583.57142
653.969	591.59696
654.16	595.61359
654.352	600.25304
654.544	601.69665
654.735	612.60555
654.927	606.00775
655.118	614.63291
655.31	609.7986
655.502	610.75352
655.693	605.68902
655.885	604.26655
656.076	614.91861
656.268	598.80661
656.459	595.87313
656.651	594.58405
656.842	584.76914
657.034	584.83421
657.225	568.05615
657.416	562.83886
657.608	538.19666
657.799	521.58204
657.99	493.78353
658.182	475.61065
658.373	448.35628
658.564	435.30941
658.756	415.42923
658.947	402.00495
659.138	395.14598
659.33	396.25098
659.521	387.05908
659.712	392.23318
659.903	399.33223
660.094	414.55593
660.286	422.55361
660.477	446.83747
660.668	457.91079
660.859	485.60734
661.05	502.91908
661.241	520.39395
661.432	533.80282
661.623	550.98362
661.814	564.90662
662.006	576.1389
662.197	585.95363
662.388	600.66104
662.579	614.23985
662.77	628.29485
662.96	634.07224
663.151	644.76202
663.342	647.57432
663.533	656.87888
663.724	665.51242
663.915	679.25213
664.106	671.38524
664.297	683.68949
664.488	683.46119
664.678	692.24889
664.869	682.61821
665.06	695.68822
665.251	699.51079
665.442	694.2188
665.632	700.92994
665.823	694.12806
666.014	693.94137
666.204	700.85462
666.395	690.32684
666.586	705.69197
666.776	701.73381
666.967	698.10487
667.158	698.10295
667.348	693.55807
667.539	685.9866
667.729	673.58087
667.92	666.64877
668.111	665.64037
668.301	651.45606
668.492	648.93689
668.682	634.56352
668.873	633.78997
669.063	624.99911
669.253	632.50851
669.444	629.08934
669.634	630.61745
669.825	637.3532
670.015	648.03147
670.206	653.09538
670.396	668.39026
670.586	671.68068
670.777	691.02872
670.967	701.77924
671.157	707.29548
671.347	708.59352
671.538	725.04342
671.728	729.76246
671.918	734.70582
672.108	731.87475
672.299	741.10366
672.489	737.33726
672.679	747.90343
672.869	741.58654
673.059	753.5475
673.249	753.72347
673.44	758.37863
673.63	757.20467
673.82	751.59574
674.01	768.12627
674.2	755.4022
674.39	763.33455
674.58	764.05299
674.77	767.94794
674.96	775.07067
675.15	768.45497
675.34	769.95379
675.53	773.38861
675.72	765.41467
675.91	771.71048
676.099	781.78836
676.289	756.99769
676.479	765.80143
676.669	752.74228
676.859	761.14775
677.049	741.45068
677.238	733.67285
677.428	730.06946
677.618	722.53125
677.808	704.49207
677.997	700.25685
678.187	689.39027
678.377	670.196
678.567	658.84515
678.756	643.2725
678.946	618.03442
679.136	601.73471
679.325	583.93671
679.515	571.41059
679.704	550.04638
679.894	538.9167
680.084	533.39775
680.273	540.32746
680.463	524.29257
680.652	532.28197
680.842	538.32474
681.031	551.91557
681.221	565.00169
681.41	581.45772
681.6	604.10986
681.789	619.49504
681.978	635.42153
682.168	656.18795
682.357	668.53043
682.547	677.02272
682.736	689.40918
682.925	703.07412
683.115	710.25278
683.304	722.88727
683.493	741.71539
683.682	739.58767
683.872	749.64676
684.061	767.45124
684.25	773.35641
684.439	786.36533
684.629	774.09139
684.818	801.62924
685.007	784.56581
685.196	794.30308
685.385	791.10544
685.574	795.82917
685.763	797.12174
685.952	798.68458
686.142	796.28258
686.331	796.71289
686.52	798.28996
686.709	798.08769
686.898	800.50328
687.087	791.13266
687.276	786.59693
687.465	785.55319
687.654	781.62106
687.842	796.24729
688.031	782.96017
688.22	791.02335
688.409	789.60659
688.598	793.18196
688.787	795.66126
688.976	802.04051
689.165	808.10491
689.353	817.76169
689.542	796.8533
689.731	818.36375
689.92	805.79661
690.108	821.99971
690.297	807.06984
690.486	836.21419
690.675	835.13942
690.863	839.91206
691.052	837.74106
691.241	866.861
691.429	851.96748
691.618	874.15465
691.806	872.78108
691.995	885.98168
692.184	887.23487
692.372	904.7297
692.561	906.45978
692.749	922.03921
692.938	916.47766
693.126	940.67904
693.315	928.82663
693.503	941.12007
693.692	939.36722
693.88	946.61359
694.068	938.16835
694.257	937.23198
694.445	944.18608
694.634	939.80652
694.822	932.73269
695.01	942.92561
695.199	937.73852
695.387	931.83826
695.575	910.93534
695.763	924.32771
695.952	896.87403
696.14	891.46235
696.328	862.62287
696.516	854.65698
696.705	818.87004
696.893	797.32155
697.081	752.87057
697.269	724.219
697.457	666.45753
697.645	626.28771
697.833	588.22721
698.021	546.83124
698.21	520.95791
698.398	499.20092
698.586	481.73238
698.774	474.10708
698.962	464.84365
699.15	471.64317
699.338	478.82362
699.526	492.32409
699.714	513.03772
699.901	546.99851
700.089	577.5453
700.277	615.38709
700.465	653.05375
700.653	702.7049
700.841	734.91256
701.029	773.75115
701.217	803.4789
701.404	856.08856
701.592	872.2814
701.78	912.85359
701.968	933.59403
702.155	960.39959
702.343	967.6863
702.531	997.17193
702.718	1026.96981
702.906	1021.47278
703.094	1044.52586
703.281	1075.58681
703.469	1062.01351
703.657	1075.54392
703.844	1095.84671
704.032	1097.77686
704.219	1100.00051
704.407	1129.74393
704.595	1112.82714
704.782	1126.57334
704.97	1119.6437
705.157	1132.12383
705.345	1128.07285
705.532	1137.05002
705.719	1126.19953
705.907	1139.25934
706.094	1115.31797
706.282	1112.43145
706.469	1107.80518
706.656	1098.70555
706.844	1097.71976
707.031	1086.83386
707.218	1081.79837
707.406	1074.57256
707.593	1056.18807
707.78	1062.55165
707.968	1050.57336
708.155	1068.3666
708.342	1044.33014
708.529	1073.66953
708.716	1055.60954
708.904	1061.61915
709.091	1047.28152
709.278	1071.14741
709.465	1045.22982
709.652	1056.63643
709.839	1043.99269
710.026	1056.9349
710.213	1037.81068
710.4	1039.21286
710.587	1034.3805
710.774	1028.77922
710.961	1025.74363
711.148	1020.86651
711.335	1020.70897
711.522	1031.92776
711.709	1007.55497
711.896	1012.81375
712.083	1026.28126
712.27	1013.102
712.457	1022.31129
712.644	1030.03499
712.831	1025.64469
713.017	1024.45822
713.204	1027.65029
713.391	1023.48651
713.578	1030.32599
713.765	1030.33417
713.951	1023.85718
714.138	1006.75245
714.325	1003.9067
714.512	1007.29838
714.698	981.01932
714.885	987.59328
715.072	969.57666
715.258	947.51708
715.445	936.2454
715.631	932.38191
715.818	936.59627
716.005	937.53601
716.191	933.32336
716.378	945.54113
716.564	953.38309
716.751	981.8875
716.937	996.28837
717.124	1020.32575
717.31	1052.55231
717.497	1089.04212
717.683	1107.34731
717.869	1147.753
718.056	1168.28579
718.242	1192.31096
718.429	1224.33757
718.615	1242.11555
718.801	1254.36406
718.988	1287.79449
719.174	1287.50758
719.36	1300.60199
719.547	1316.92075
719.733	1341.55708
719.919	1343.47388
720.105	1368.80948
720.291	1363.03503
720.478	1372.96835
720.664	1372.08945
720.85	1402.48004
721.036	1382.55707
721.222	1426.69173
721.408	1406.85846
721.595	1419.60171
721.781	1431.0905
721.967	1452.73777
722.153	1435.31892
722.339	1462.79536
722.525	1436.87098
722.711	1469.31671
722.897	1450.94331
723.083	1479.0936
723.269	1458.37006
723.455	1473.96651
723.641	1472.72552
723.827	1490.20373
724.012	1455.31097
724.198	1476.23862
724.384	1474.01275
724.57	1492.30855
724.756	1451.45284
724.942	1473.46439
725.127	1470.16835
725.313	1472.21216
725.499	1452.45919
725.685	1448.10175
725.87	1444.5351
726.056	1434.13028
726.242	1438.68079
726.428	1444.90253
726.613	1399.92016
726.799	1396.66516
726.985	1364.82167
727.17	1380.04781
727.356	1355.15972
727.541	1353.05841
727.727	1321.00026
727.913	1316.73016
728.098	1309.65928
728.284	1288.43654
728.469	1273.33825
728.655	1310.49372
728.84	1261.30471
729.026	1287.41631
729.211	1278.58201
729.397	1294.21832
729.582	1284.2438
729.767	1262.27965
729.953	1261.1309
730.138	1295.49908
730.323	1272.87455
730.509	1287.88061
730.694	1271.21482
730.879	1306.87245
731.065	1281.99096
731.25	1311.52485
731.435	1263.83023
731.621	1293.41437
731.806	1283.80971
731.991	1279.56348
732.176	1249.60126
732.361	1291.89537
732.547	1236.5967
732.732	1259.34236
732.917	1234.90375
733.102	1246.90925
733.287	1233.27738
733.472	1271.83941
733.657	1257.38508
733.842	1268.26563
734.027	1295.10327
734.212	1312.81551
734.397	1348.23205
734.582	1375.8458
734.767	1421.16464
734.952	1463.69449
735.137	1494.25422
735.322	1540.31438
735.507	1557.2626
735.692	1570.74975
735.877	1589.72706
736.062	1619.13775
736.247	1627.56498
736.431	1654.19882
736.616	1667.59283
736.801	1665.74311
736.986	1642.43683
737.171	1655.17758
737.355	1663.71785
737.54	1645.8169
737.725	1650.73694
737.909	1651.04773
738.094	1604.40152
738.279	1653.2894
738.463	1588.52473
738.648	1625.20907
738.833	1591.70614
739.017	1635.95685
739.202	1599.27124
739.386	1618.37486
739.571	1602.61006
739.756	1627.78402
739.94	1641.15981
740.125	1655.67732
740.309	1647.79989
740.494	1695.32312
740.678	1692.2913
740.863	1702.5411
741.047	1692.19187
741.231	1749.51808
741.416	1734.01121
741.6	1794.81644
741.785	1799.98439
741.969	1813.36554
742.153	1813.08319
742.338	1868.09869
742.522	1867.43667
742.706	1889.85556
742.89	1878.90528
743.075	1948.82453
743.259	1946.48995
743.443	1954.15343
743.627	1952.37087
743.812	2001.70514
743.996	1964.7587
744.18	2003.04432
744.364	1994.56984
744.548	2047.09982
744.732	1988.10531
744.916	2100.61899
745.1	2004.70986
745.285	2104.09692
745.469	2038.1686
745.653	2118.20827
745.837	2084.55415
746.021	2075.14697
746.205	2089.54264
746.389	2148.12112
746.573	2097.6771
746.757	2142.51188
746.94	2114.03862
747.124	2109.29863
747.308	2091.30319
747.492	2143.39548
747.676	2100.89276
747.86	2087.4407
748.044	2091.07817
748.227	2045.6396
748.411	2046.41695
748.595	2086.06293
748.779	2024.82177
748.963	2033.89819
749.146	2011.13367
749.33	2043.73119
749.514	1981.38887
749.697	1979.34032
749.881	2014.42518
750.065	2043.42353
750.248	2069.01468
750.432	2043.29642
750.616	2061.31084
750.799	2100.63792
750.983	2058.94266
751.166	2098.62642
751.35	2103.40657
751.533	2116.64549
751.717	2090.2917
751.9	2130.32532
752.084	2099.17562
752.267	2098.0026
752.451	2091.8667
752.634	2123.36697
752.818	2079.00288
753.001	2126.82623
753.184	2049.3341
753.368	2093.41926
753.551	2082.96581
753.734	2114.70468
753.918	2078.29735
754.101	2082.95563
754.284	2131.93981
754.467	2103.2841
754.651	2141.02899
754.834	2130.42936
755.017	2153.62947
755.2	2240.07253
755.384	2211.94753
755.567	2245.13043
755.75	2254.058
755.933	2282.08522
756.116	2297.15093
756.299	2333.25499
756.482	2340.82379
756.665	2354.15627
756.848	2306.28533
757.032	2385.4688
757.215	2351.29758
757.398	2364.46615
757.581	2350.51714
757.764	2376.87241
757.947	2327.25044
758.129	2380.89026
758.312	2314.54431
758.495	2351.83403
758.678	2304.68252
758.861	2343.64473
759.044	2330.32235
759.227	2378.29552
759.41	2288.8127
759.592	2359.76287
759.775	2321.79367
759.958	2305.97452
760.141	2258.52038
760.324	2325.97125
760.506	2307.60301
760.689	2270.91642
760.872	2226.31061
761.054	2293.01101
761.237	2259.53219
761.42	2290.58415
761.602	2239.45843
761.785	2196.42329
761.968	2195.63085
762.15	2185.27048
762.333	2062.00782
762.515	2007.65516
762.698	1831.6416
762.88	1720.05248
763.063	1577.5813
763.245	1513.80021
763.428	1426.04331
763.61	1384.36098
763.793	1321.50768
763.975	1319.62556
764.158	1310.34106
764.34	1306.47335
764.522	1314.36739
764.705	1384.65533
764.887	1460.86002
765.069	1523.57811
765.252	1647.72058
765.434	1748.3021
765.616	1798.21563
765.799	1937.97916
765.981	1989.5728
766.163	2069.9265
766.345	2084.77797
766.528	2182.46373
766.71	2193.94198
766.892	2263.95283
767.074	2297.88452
767.256	2355.78204
767.438	2364.99967
767.62	2510.48453
767.802	2502.35198
767.985	2595.69072
768.167	2625.39702
768.349	2756.56849
768.531	2798.92912
768.713	2903.73577
768.895	2903.08485
769.077	2973.95934
769.259	3099.46502
769.441	3126.65817
769.623	3097.1874
769.804	3246.59124
769.986	3202.9467
770.168	3292.50161
770.35	3287.36651
770.532	3291.4036
770.714	3301.19963
770.896	3450.50869
771.077	3351.3469
771.259	3473.41909
771.441	3414.09302
771.623	3518.50568
771.804	3483.19597
771.986	3575.26901
772.168	3526.90312
772.35	3635.133
772.531	3579.61651
772.713	3625.88824
772.894	3628.46554
773.076	3630.17585
773.258	3619.0083
773.439	3741.68354
773.621	3595.65696
773.802	3759.76463
773.984	3713.85507
774.166	3745.6132
774.347	3718.64282
774.529	3813.12208
774.71	3733.76943
774.891	3802.46075
775.073	3785.51095
775.254	3891.09708
775.436	3692.44991
775.617	3869.73745
775.799	3866.14175
775.98	3794.68208
776.161	3811.50868
776.343	3762.92036
776.524	3814.77603
776.705	3733.14154
776.886	3711.36298
777.068	3650.7872
777.249	3697.42383
777.43	3556.27876
777.611	3631.13148
777.793	3563.60474
777.974	3437.31603
778.155	3657.41272
778.336	3482.2646
778.517	3525.74264
778.698	3560.35951
778.879	3482.1308
779.061	3515.84325
779.242	3552.81501
779.423	3556.5564
779.604	3478.71791
779.785	3471.28641
779.966	3557.60302
780.147	3458.56396
780.328	3471.49461
780.509	3502.1297
780.69	3616.8201
780.871	3503.34356
781.051	3482.79424
781.232	3556.06186
781.413	3617.25923
781.594	3524.59351
781.775	3625.50521
781.956	3509.27293
782.137	3616.51039
782.317	3519.64916
782.498	3598.91726
782.679	3558.95861
782.86	3708.59834
783.04	3638.10787
783.221	3741.68005
783.402	3489.208
783.583	3661.58714
783.763	3636.72177
783.944	3641.434
784.124	3649.91599
784.305	3721.91514
784.486	3698.16876
784.666	3686.71383
784.847	3544.38109
785.027	3693.85322
785.208	3701.39484
785.388	3724.7649
785.569	3670.06659
785.749	3681.49307
785.93	3616.17754
786.11	3701.6485
786.291	3533.5096
786.471	3623.75551
786.652	3485.8291
786.832	3529.18912
787.012	3503.09799
787.193	3483.69294
787.373	3267.26859
787.553	3304.93916
787.734	3137.10723
787.914	3156.7407
788.094	2949.12757
788.275	2935.63396
788.455	2804.10756
788.635	2812.42658
788.815	2794.05723
788.995	2822.32827
789.176	2722.74753
789.356	2729.52223
789.536	2734.89759
789.716	2811.45498
789.896	2830.6127
790.076	2963.54083
790.256	2882.50267
790.436	3009.8604
790.616	3094.35668
790.796	3189.85035
790.976	3192.65488
791.156	3274.64358
791.336	3293.66899
791.516	3300.73622
791.696	3408.78593
791.876	3442.74108
792.056	3413.38934
792.236	3478.05211
792.416	3517.47825
792.596	3683.1322
792.776	3504.07863
792.956	3576.7839
793.135	3564.22726
793.315	3686.09632
793.495	3534.1439
793.675	3512.54825
793.854	3572.89161
794.034	3608.82034
794.214	3506.77851
794.394	3571.07252
794.573	3519.87574
794.753	3427.77789
794.933	3556.10697
795.112	3543.32607
795.292	3404.96218
795.472	3309.93069
795.651	3266.38699
795.831	3191.17937
796.01	3140.99104
796.19	3175.39388
796.369	3058.52462
796.549	3102.93732
796.728	3027.50431
796.908	3136.43913
797.087	2985.08926
797.267	3015.30246
797.446	3040.29154
797.626	3039.54458
797.805	3086.1049
797.984	3116.93861
798.164	3097.33187
798.343	3174.41209
798.522	3220.69484
798.702	3252.85132
798.881	3210.74292
799.06	3405.30899
799.239	3295.2558
799.419	3338.85377
799.598	3376.20464
799.777	3290.32732
799.956	3376.12482
800.136	3412.81534
800.315	3430.65022
800.494	3461.68737
800.673	3518.08727
800.852	3528.76527
801.031	3544.57857
801.21	3576.98914
801.389	3558.42972
801.568	3601.50413
801.747	3647.82211
801.926	3806.66305
802.105	3649.89622
802.284	3675.69806
802.463	3750.68399
802.642	3807.121
802.821	3810.1786
803	3885.97
803.179	3720.57084
803.358	3853.43482
803.537	3794.97472
803.716	3933.73524
803.895	3831.90146
804.073	3906.40671
804.252	3895.08745
804.431	3866.30225
804.61	3881.91953
804.789	3980.89389
804.967	3845.18965
805.146	3908.32174
805.325	3717.09082
805.503	3805.34639
805.682	3830.98377
805.861	3816.3718
806.039	3778.68056
806.218	3728.17507
806.397	3893.97491
806.575	3729.36321
806.754	3836.45112
806.932	3821.28679
807.111	3838.88933
807.289	3925.15637
807.468	3907.10714
807.646	3880.04909
807.825	3933.50213
808.003	3991.7237
808.182	3948.08481
808.36	4117.8617
808.539	4111.11515
808.717	4088.8334
808.895	4114.71691
809.074	4247.12743
809.252	4127.91995
809.43	4365.79354
809.609	4361.04603
809.787	4314.48196
809.965	4338.0024
810.144	4415.83055
810.322	4435.8049
810.5	4508.90787
810.678	4470.9179
810.856	4563.05086
811.035	4509.64495
811.213	4635.99203
811.391	4572.72021
811.569	4670.54908
811.747	4715.9841
811.925	4949.56895
812.103	4769.69149
812.281	4816.6703
812.459	4920.38366
812.637	4897.67575
812.816	4821.88465
812.994	4903.00775
813.171	4917.56381
813.349	4839.69029
813.527	5026.21043
813.705	4894.48967
813.883	4847.45779
814.061	4966.263
814.239	5091.51597
814.417	4992.89532
814.595	4944.58724
814.773	5049.05183
814.95	5057.95085
815.128	4997.6415
815.306	5167.74809
815.484	4929.56636
815.662	4965.23679
815.839	5157.22717
816.017	4789.52367
816.195	4979.31459
816.372	4889.05783
816.55	4943.2428
816.728	4731.78876
816.905	4748.39535
817.083	4722.57377
817.261	4608.14436
817.438	4760.19228
817.616	4786.44354
817.793	4517.94253
817.971	4545.64826
818.148	4614.55397
818.326	4523.46431
818.503	4299.28564
818.681	4331.82595
818.858	4016.0448
819.036	3951.34136
819.213	3714.63468
819.391	3581.19233
819.568	3380.39569
819.745	3232.58816
819.923	2995.96458
820.1	2861.56439
820.277	2704.03898
820.455	2543.0342
820.632	2351.28417
820.809	2212.59623
820.986	1995.38931
821.164	1752.09542
821.341	1517.64933
821.518	1246.2865
821.695	997.41263
821.872	815.88529
822.05	674.57764
822.227	585.995
822.404	524.28562
822.581	485.90983
822.758	455.26454
822.935	437.85235
823.112	424.93892
823.289	429.62627
823.466	428.36061
823.643	460.55678
823.82	500.8874
823.997	574.06213
824.174	647.51272
824.351	761.44805
824.528	878.80047
824.705	1033.16657
824.882	1137.10601
825.059	1273.0098
825.236	1392.68548
825.412	1489.21077
825.589	1560.38311
825.766	1608.93493
825.943	1640.07652
826.12	1626.31631
826.296	1537.80435
826.473	1445.14879
826.65	1282.1189
826.827	1192.56863
827.003	1095.51169
827.18	1037.78783
827.357	984.74459
827.533	988.67596
827.71	961.81464
827.887	968.57804
828.063	969.83263
828.24	1000.41612
828.416	1043.419
828.593	1164.74259
828.769	1304.38146
828.946	1513.79145
829.122	1760.19075
829.299	2044.30405
829.475	2303.13377
829.652	2670.83851
829.828	2842.29058
830.005	3164.59211
830.181	3395.75302
830.357	3564.83887
830.534	3737.07904
830.71	3889.74
830.886	4084.84604
831.063	4231.86353
831.239	4244.85048
831.415	4280.98467
831.592	4278.66473
831.768	4221.78462
831.944	4057.27118
832.12	4129.39742
832.296	3772.3019
832.473	3626.99343
832.649	3248.43728
832.825	3048.79231
833.001	2506.11883
833.177	2320.49002
833.353	1950.82014
833.529	1761.81969
833.705	1587.85183
833.881	1477.65391
834.058	1400.40682
834.234	1363.07538
834.41	1314.92375
834.586	1310.03307
834.761	1335.3846
834.937	1386.47887
835.113	1447.14201
835.289	1594.77167
835.465	1760.18817
835.641	2030.44457
835.817	2261.85098
835.993	2589.70704
836.169	2922.28624
836.344	3347.21054
836.52	3567.03416
836.696	3894.4861
836.872	4172.0988
837.048	4570.88525
837.223	4727.75896
837.399	5000.16136
837.575	5318.7105
837.75	5659.91559
837.926	5860.01388
838.102	5920.63258
838.277	6450.87935
838.453	6778.36917
838.628	6677.68796
838.804	6866.19664
838.98	6544.12171
839.155	6834.24892
839.331	6365.70134
839.506	6068.48067
839.682	5687.69755
839.857	5323.67816
840.033	5028.29846
840.208	4780.64603
840.384	4705.36941
840.559	4719.30381
840.734	4521.18935
840.91	4515.94211
841.085	4549.17202
841.26	4824.48205
841.436	5020.34807
841.611	5474.29768
841.786	5706.60641
841.962	6422.22433
842.137	6769.12412
842.312	7777.98483
842.487	7863.99485
842.663	8162.02992
842.838	8874.93586
843.013	9396.02036
843.188	9194.13867
843.363	9403.94545
843.538	9782.23889
843.714	10768.21896
843.889	10687.16906
844.064	11267.81989
844.239	10470.11627
844.414	11109.82498
844.589	10430.18014
844.764	11865.81935
844.939	11361.36488
845.114	11094.64618
845.289	11897.76431
845.464	12663.91229
845.639	11873.11931
845.814	12132.57634
845.989	12616.97045
846.163	13027.9899
846.338	12000.554
846.513	13210.87897
846.688	12554.91129
846.863	12767.58163
847.038	12404.72689
847.212	12978.74962
847.387	12642.85956
847.562	12476.32164
847.737	13324.26792
847.911	13834.83567
848.086	13076.29926
848.261	13710.32428
848.435	13163.05833
848.61	13429.98731
848.785	13104.06297
848.959	14136.73817
849.134	14159.76468
849.308	13914.02043
849.483	14462.1482
849.658	14086.31857
849.832	13461.55809
850.007	13239.2414
850.181	14224.19209
850.356	14575.67345
850.53	14612.74192
850.705	14727.08633
850.879	14046.46358
851.053	14155.24275
851.228	15320.74098
851.402	13682.84676
851.577	14323.39882
851.751	14723.20468
851.925	13854.35404
852.099	13149.10807
852.274	14761.49194
852.448	14165.48791
852.622	13556.7518
852.797	15124.84922
852.971	13451.27058
853.145	14311.45408
853.319	14977.83467
853.493	14918.29798
853.668	14131.60203
853.842	15591.48586
854.016	15242.97534
854.19	14907.36975
854.364	14620.08202
854.538	14163.90891
854.712	14654.42374
854.886	13927.40303
855.06	15217.524
855.234	14756.50358
855.408	15737.07636
855.582	15225.26461
855.756	13959.47414
855.93	14801.81888
856.104	15188.4916
856.278	15188.45649
856.452	15916.57742
856.626	15961.33806
856.8	14486.87902
856.973	17112.24484
857.147	15532.65492
857.321	14760.08547
857.495	15587.30468
857.669	13979.62726
857.842	14284.15923
858.016	14332.37034
858.19	15207.95014
858.364	13777.39592
858.537	14991.53186
858.711	14286.1234
858.885	14732.64886
859.058	13495.91649
859.232	14037.03249
859.405	15634.83665
859.579	14552.22688
859.753	15378.6746
859.926	16134.56818
860.1	14088.86705
860.273	15132.54555
860.447	15245.09944
860.62	13567.74768
860.794	15647.15624
860.967	14570.39508
861.141	14105.23928
861.314	15632.65727
861.487	16514.59839
861.661	15946.36684
861.834	14403.52293
862.008	14068.24337
862.181	14836.8219
862.354	13742.66133
862.528	14948.32774
862.701	14697.76238
862.874	15878.61412
863.047	13590.72569
863.221	14864.7637
863.394	13649.82299
863.567	15147.84766
863.74	13138.67817
863.913	13820.77677
864.087	13481.56519
864.26	14017.27055
864.433	14905.26484
864.606	13712.84693
864.779	15581.47022
864.952	14781.75265
865.125	13177.7756
865.298	13741.05362
865.471	14625.88595
865.644	15815.10952
865.817	14525.96228
865.99	14926.3602
866.163	14750.10626
866.336	14510.12425
866.509	14872.04405
866.682	17964.34214
866.855	15490.45846
867.028	14971.46914
867.2	14696.22352
867.373	14948.77094
867.546	15704.68599
867.719	16482.37291
867.892	15295.81324
868.064	15567.5967
868.237	15665.41758
868.41	14887.16713
868.583	15090.57603
868.755	15092.58049
868.928	17265.87434
869.101	14535.03724
869.273	13964.94421
869.446	16088.64045
869.619	14879.18725
869.791	15215.65823
869.964	14487.04497
870.136	15324.86035
870.309	13446.664
870.481	14340.9122
870.654	14628.86218
870.826	13481.33646
870.999	14905.145
871.171	14270.59125
871.344	14148.13202
871.516	13847.85102
871.689	14121.62729
871.861	13378.70214
872.033	13033.8039
872.206	13894.7293
872.378	13136.7444
872.55	14088.12483
872.723	13972.37377
872.895	14555.7383
873.067	14227.24151
873.24	14176.57869
873.412	13196.60642
873.584	13822.06454
873.756	13801.10257
873.928	14193.60406
874.101	13186.18547
874.273	14306.58814
874.445	12800.38045
874.617	13124.23757
874.789	13305.49354
874.961	13728.16276
875.133	14458.45936
875.305	13338.59472
875.477	12909.80427
875.649	12732.33651
875.821	13804.16937
875.993	12839.10652
876.165	13095.14298
876.337	13815.53557
876.509	13145.34535
876.681	12655.15493
876.853	12369.05607
877.025	13053.87647
877.197	12648.03338
877.369	12636.38351
877.541	11563.68625
877.712	11801.88074
877.884	11790.69408
878.056	11560.11138
878.228	10058.73763
878.4	10732.30637
878.571	9543.77565
878.743	9133.33419
878.915	8364.44172
879.086	7739.09869
879.258	6989.15022
879.43	6470.98447
879.601	5679.82413
879.773	4967.96491
879.945	3898.5847
880.116	3294.88764
880.288	2554.38353
880.459	2095.50886
880.631	1706.95688
880.802	1483.83766
880.974	1243.7048
881.145	1125.02868
881.317	1006.51863
881.488	959.43037
881.66	894.1585
881.831	883.52692
882.002	851.21538
882.174	877.43212
882.345	907.40597
882.517	985.70657
882.688	1055.46135
882.859	1203.24279
883.03	1318.20032
883.202	1534.89868
883.373	1757.01692
883.544	2046.51787
883.715	2325.65203
883.887	2712.86815
884.058	3012.47053
884.229	3415.77335
884.4	3786.15564
884.571	4246.78337
884.742	4533.88734
884.914	5150.15167
885.085	5356.68061
885.256	5629.79068
885.427	5986.02079
885.598	6341.12688
885.769	6725.91873
885.94	6996.41664
886.111	6962.31993
886.282	7416.40225
886.453	8170.483
886.624	8467.52999
886.795	8462.31403
886.966	9229.73723
887.136	9107.44658
887.307	10596.1682
887.478	9976.31613
887.649	11059.42442
887.82	10501.49116
887.991	12061.1748
888.161	11905.10244
888.332	12371.49469
888.503	12459.51347
888.674	13626.32025
888.844	12862.16711
889.015	13530.54081
889.186	13164.87763
889.356	14078.2539
889.527	14851.64337
889.698	14926.06646
889.868	14781.87609
890.039	13690.82856
890.209	14545.45414
890.38	15054.63563
890.551	15082.78977
890.721	15406.84548
890.892	15470.51428
891.062	15643.26856
891.233	15001.33832
891.403	16392.15299
891.574	15264.69837
891.744	15454.51416
891.914	18697.52394
892.085	15529.28345
892.255	15788.02007
892.425	15136.8464
892.596	16620.51019
892.766	14941.24565
892.936	14944.73944
893.107	14314.97826
893.277	13377.08112
893.447	12080.27098
893.618	10819.10632
893.788	9031.64987
893.958	8299.0105
894.128	7769.17048
894.298	6550.39581
894.468	6102.37106
894.639	5418.29431
894.809	5362.83083
894.979	5006.6577
895.149	4886.274
895.319	4722.18508
895.489	4827.56275
895.659	4847.44201
895.829	5196.15406
895.999	5364.13674
896.169	6476.499
896.339	6827.80061
896.509	7832.65144
896.679	8828.2382
896.849	9660.6878
897.019	10691.1236
897.189	11929.0089
897.358	13246.05141
897.528	14866.38552
897.698	13843.1197
897.868	15569.60911
898.038	14723.78853
898.208	17000.53172
898.377	19484.55773
898.547	19507.09717
898.717	23060.02063
898.886	20473.75328
899.056	19726.8681
899.226	23132.37043
899.395	24220.65288
899.565	22990.01184
899.735	22600.92886
899.904	25876.46053
900.074	22748.1352
900.244	26265.73151
900.413	31709.53305
900.583	28693.5469
900.752	29014.99718
900.922	25520.99939
901.091	24995.74048
901.261	28331.09215
901.43	25466.01014
901.599	32235.0524
901.769	29681.50703
901.938	24719.78757
902.108	29460.97864
902.277	26080.38395
902.446	23200.32188
902.616	22678.53945
902.785	21603.18994
902.954	17417.79066
903.124	14175.16584
903.293	12848.11768
903.462	10316.79257
903.631	8338.98659
903.801	6822.93097
903.97	6250.48159
904.139	6067.51335
904.308	5613.20495
904.477	5317.40986
904.646	5320.28503
904.816	4961.66167
904.985	5278.95842
905.154	5465.85659
