Data from WindowProjectSample_Transmission__14__00014.txt Node

Date: Sat May 03 15:06:48 EDT 2025
User: jessi
Spectrometer: SR400872
Trigger mode: 0
Integration Time (sec): 5.000010E-1
Scans to average: 6
Electric dark correction enabled: true
Nonlinearity correction enabled: true
Boxcar width: 0
XAxis mode: Wavelengths
Number of Pixels in Spectrum: 3648
>>>>>Begin Spectral Data<<<<<
184.909	17573.04395
185.132	2645.59078
185.355	23265.56948
185.578	-8035.89167
185.801	323.25142
186.024	-1505.57091
186.247	849.1266
186.47	2174.23708
186.693	-295.71621
186.916	-2863.54305
187.139	-2673.93306
187.362	1493.31071
187.585	2802.00187
187.808	-3434.85622
188.031	-1108.97558
188.254	-1320.27841
188.476	-830.28548
188.699	2498.31882
188.922	-841.95311
189.145	-10005.80281
189.368	-342.1462
189.591	-1101.99379
189.813	-1644.28611
190.036	1176.91074
190.259	1899.11493
190.482	604.81092
190.705	11026.06067
190.927	-1050.1882
191.15	3431.27846
191.373	2317.64799
191.595	-2192.73233
191.818	2545.36291
192.041	-276.09368
192.263	2747.28568
192.486	1977.91634
192.709	-5416.04355
192.931	2913.86939
193.154	-6188.9101
193.377	193044.98391
193.599	1311.29512
193.822	1593.40634
194.044	-2143.45052
194.267	455.65081
194.489	-483.2014
194.712	1398.80613
194.934	3361.47162
195.157	-14913.44336
195.379	815.88402
195.602	2215.66016
195.824	1985.54324
196.047	2348.03099
196.269	2805.93895
196.492	3600.4216
196.714	2887.25385
196.936	1173.81506
197.159	1345.81689
197.381	-2313.55999
197.604	-1180.5916
197.826	6171.79843
198.048	3003.6101
198.271	4153.81589
198.493	1944.83894
198.715	-5926.83832
198.938	-600.93817
199.16	1711.77675
199.382	1466.96156
199.604	-751.39712
199.827	9156.26669
200.049	942.95872
200.271	-3218.10606
200.493	-49017.19902
200.715	2417.59509
200.938	6747.34854
201.16	-7114.76036
201.382	-2947.62086
201.604	-2049.21294
201.826	6724.74661
202.048	957.74398
202.27	-17895.97605
202.492	4499.86603
202.715	-1170.72399
202.937	4667.51563
203.159	-2282.86828
203.381	863.48297
203.603	-3333.84486
203.825	-2648.66982
204.047	3547.03023
204.269	-2224.93591
204.491	2038.6532
204.713	1947.92571
204.935	14187.64476
205.156	1653.6451
205.378	-8477.28551
205.6	-4233.07164
205.822	9182.90069
206.044	-693.02233
206.266	4116.99783
206.488	1140.45822
206.71	28587.53828
206.932	2420.8
207.153	-4890.00698
207.375	-2067.14012
207.597	8735.40171
207.819	4337.65851
208.041	2257.34992
208.262	-2547.6319
208.484	-1153.81543
208.706	-2518.9301
208.927	28773.41194
209.149	985.46066
209.371	-6341.9641
209.593	1465.61853
209.814	4866.08915
210.036	-3730.53176
210.258	-5466.28635
210.479	-1316.13444
210.701	1021.11682
210.922	6675.32244
211.144	-1123.44563
211.366	-6230.40451
211.587	-532.51715
211.809	9714.88889
212.03	-1323.52417
212.252	-1629.65381
212.473	819.50704
212.695	-2652.26391
212.916	2983.10888
213.138	3660.60261
213.359	-1870.1893
213.581	6191.73456
213.802	-1333.99092
214.024	16387.3293
214.245	-3379.49588
214.466	-718.77304
214.688	1693.05369
214.909	904.29051
215.131	-96204.80657
215.352	1689.49203
215.573	2469.08415
215.795	3037.34837
216.016	4198.42143
216.237	-574.78433
216.459	6545.96564
216.68	104427.74437
216.901	-82636.51383
217.122	1857.20346
217.344	6286.86741
217.565	-55250.39917
217.786	1478.13164
218.007	1996.88622
218.228	-1044.40286
218.45	-1295.55197
218.671	-1043.60364
218.892	1071.89217
219.113	-17933.3864
219.334	-466.19759
219.555	-5609.56007
219.776	1591.38053
219.997	3641.8505
220.219	1104.70616
220.44	2275.05824
220.661	-2710.47098
220.882	3571.15124
221.103	-1263.75347
221.324	978.71287
221.545	2226.61012
221.766	-6109.81896
221.987	3840.92934
222.208	-2069.39373
222.429	3551.73272
222.65	-128.91258
222.87	-580.57895
223.091	8102.62688
223.312	2283.85518
223.533	6826.04042
223.754	1844.16089
223.975	1457.54716
224.196	-11518.42769
224.417	1023.83088
224.637	871.61794
224.858	-927.71872
225.079	7820.17908
225.3	562.50441
225.521	2040.05834
225.741	1557.0126
225.962	723.79641
226.183	252.7088
226.404	660.44297
226.624	570.61706
226.845	368.25892
227.066	417.60784
227.286	174.04897
227.507	93.04689
227.728	85.08724
227.948	127.62239
228.169	42.63398
228.389	45.70121
228.61	23.67242
228.831	34.69392
229.051	3.61888
229.272	20.77916
229.492	30.66979
229.713	8.89856
229.933	24.20834
230.154	17.67565
230.374	33.85113
230.595	24.58653
230.815	17.11891
231.036	24.04706
231.256	-4.5934
231.477	44.25575
231.697	24.7038
231.917	21.64717
232.138	37.72642
232.358	81.66681
232.579	65.49819
232.799	11.1255
233.019	67.36403
233.24	78.60288
233.46	29.63779
233.68	38.70635
233.901	29.83361
234.121	16.31319
234.341	5.96889
234.561	-3.25227
234.782	13.86407
235.002	44.72987
235.222	-0.85661
235.442	39.79269
235.662	18.74696
235.883	43.62848
236.103	33.77454
236.323	24.2946
236.543	18.14593
236.763	29.0889
236.983	27.06393
237.203	33.29992
237.423	42.03409
237.643	64.67927
237.864	52.7115
238.084	13.78775
238.304	19.92747
238.524	33.472
238.744	28.15057
238.964	46.98983
239.184	43.20265
239.404	46.00704
239.624	23.31225
239.843	42.61038
240.063	23.76228
240.283	16.00474
240.503	16.20524
240.723	17.1583
240.943	8.92007
241.163	12.69075
241.383	10.30272
241.603	4.86274
241.822	6.69809
242.042	4.93658
242.262	6.17812
242.482	7.07759
242.702	8.29649
242.921	2.48371
243.141	5.72068
243.361	4.96013
243.581	6.76528
243.8	6.19645
244.02	3.94168
244.24	7.37941
244.459	7.86505
244.679	14.61438
244.899	8.82783
245.118	9.91552
245.338	8.84982
245.558	10.38328
245.777	5.9866
245.997	7.70785
246.216	7.65359
246.436	4.53654
246.655	3.04406
246.875	2.53721
247.094	4.65407
247.314	1.56125
247.533	2.59562
247.753	3.25585
247.972	2.73951
248.192	1.10322
248.411	1.87596
248.631	3.20449
248.85	3.9314
249.07	2.75196
249.289	5.44208
249.508	3.90519
249.728	5.83094
249.947	6.62346
250.166	7.32648
250.386	3.94071
250.605	5.29563
250.824	8.6042
251.044	6.18951
251.263	20.14871
251.482	10.49642
251.701	9.92946
251.921	0.37969
252.14	2.85214
252.359	3.28345
252.578	8.40949
252.798	2.86699
253.017	7.50657
253.236	3.91487
253.455	4.76187
253.674	10.02594
253.893	4.16594
254.112	6.60864
254.331	9.37282
254.551	7.95224
254.77	3.59166
254.989	11.94288
255.208	10.04398
255.427	12.28886
255.646	10.60588
255.865	17.99324
256.084	7.44832
256.303	8.38703
256.522	11.49419
256.741	2.43329
256.96	3.61362
257.179	7.02094
257.397	8.92945
257.616	4.18866
257.835	4.79137
258.054	11.47922
258.273	8.00459
258.492	8.74346
258.711	5.0435
258.93	2.18442
259.148	3.1556
259.367	3.2829
259.586	4.40456
259.805	2.15437
260.023	4.23239
260.242	3.19609
260.461	2.20543
260.68	1.20981
260.898	3.80502
261.117	1.27312
261.336	1.07792
261.554	3.22917
261.773	3.22929
261.992	0.77459
262.21	2.86896
262.429	3.86915
262.648	6.14153
262.866	6.90403
263.085	4.4857
263.303	4.70177
263.522	7.45992
263.74	7.9064
263.959	12.38025
264.178	6.61288
264.396	5.48667
264.615	4.20319
264.833	9.71839
265.051	8.24027
265.27	8.12832
265.488	9.35517
265.707	5.72365
265.925	9.08698
266.144	4.04652
266.362	5.20061
266.58	5.61889
266.799	4.39377
267.017	5.13348
267.235	4.59549
267.454	3.03248
267.672	1.79097
267.89	3.66721
268.109	3.99315
268.327	3.8776
268.545	1.29422
268.763	3.59742
268.982	1.95096
269.2	4.55204
269.418	2.73173
269.636	1.85053
269.854	3.79959
270.073	2.81666
270.291	1.5033
270.509	1.45401
270.727	3.85502
270.945	5.96234
271.163	6.08562
271.381	1.47546
271.599	2.61944
271.817	4.47207
272.036	1.49546
272.254	2.67173
272.472	2.12914
272.69	2.16619
272.908	1.95286
273.126	3.67262
273.344	4.61359
273.562	1.79474
273.779	2.22081
273.997	3.28713
274.215	3.8446
274.433	2.65381
274.651	4.05039
274.869	4.03781
275.087	2.43043
275.305	3.46335
275.523	2.17838
275.74	2.86237
275.958	4.87669
276.176	7.01481
276.394	1.89198
276.612	2.81938
276.829	2.69744
277.047	2.03651
277.265	2.72635
277.483	3.32885
277.7	3.82394
277.918	3.00644
278.136	5.12696
278.353	2.74232
278.571	1.43653
278.789	4.41575
279.006	0.98259
279.224	2.47555
279.442	4.80698
279.659	3.15071
279.877	1.99636
280.094	4.55759
280.312	0.99173
280.529	3.18662
280.747	0.9335
280.964	2.17912
281.182	5.20472
281.399	2.4148
281.617	3.71844
281.834	2.42129
282.052	1.91845
282.269	2.66222
282.487	2.2621
282.704	1.88068
282.921	2.15178
283.139	2.70065
283.356	3.63294
283.574	3.36229
283.791	1.77578
284.008	4.62847
284.226	2.46007
284.443	2.85791
284.66	3.48288
284.877	2.85968
285.095	2.09811
285.312	1.55033
285.529	0.84701
285.746	0.84836
285.964	1.77327
286.181	1.03722
286.398	1.88057
286.615	2.4384
286.832	2.26518
287.05	0.75419
287.267	1.64669
287.484	1.77298
287.701	2.367
287.918	2.23348
288.135	2.49822
288.352	1.24351
288.569	1.3715
288.786	2.05965
289.003	1.68052
289.22	2.56153
289.437	1.78033
289.654	2.66526
289.871	3.03759
290.088	2.67291
290.305	2.01459
290.522	1.50013
290.739	2.02527
290.956	2.74741
291.173	3.46939
291.39	3.2032
291.607	2.32501
291.824	1.57288
292.04	1.11647
292.257	2.52706
292.474	2.96083
292.691	1.88521
292.908	1.23179
293.125	1.72126
293.341	1.05224
293.558	4.6111
293.775	1.74695
293.992	1.96738
294.208	0.93479
294.425	1.09577
294.642	1.6613
294.858	2.32404
295.075	0.63847
295.292	1.85044
295.508	2.1562
295.725	3.40277
295.942	1.65665
296.158	1.191
296.375	1.89269
296.591	1.42866
296.808	1.57276
297.024	1.78744
297.241	1.99957
297.458	2.22413
297.674	0.16471
297.891	1.70139
298.107	1.4344
298.323	1.02369
298.54	2.55173
298.756	1.21563
298.973	0.43759
299.189	2.60011
299.406	1.12222
299.622	2.73454
299.838	2.57674
300.055	2.53484
300.271	0.65452
300.487	0.71
300.704	1.03161
300.92	0.70761
301.136	3.68968
301.353	2.50626
301.569	1.95328
301.785	2.12463
302.001	2.47536
302.218	2.29329
302.434	2.07442
302.65	0.56781
302.866	1.59968
303.083	3.56273
303.299	3.38207
303.515	1.71033
303.731	1.98607
303.947	0.72922
304.163	1.0619
304.379	2.03664
304.595	2.33353
304.812	1.46786
305.028	1.18857
305.244	1.55949
305.46	2.64534
305.676	2.62349
305.892	3.15004
306.108	1.8671
306.324	1.52631
306.54	3.25457
306.756	2.46473
306.972	2.50658
307.187	1.51662
307.403	3.20912
307.619	1.19684
307.835	2.73227
308.051	2.97383
308.267	0.66797
308.483	2.81452
308.699	2.13183
308.914	1.90818
309.13	1.77517
309.346	0.3582
309.562	0.89123
309.778	0.50285
309.993	2.2883
310.209	1.69587
310.425	0.69392
310.641	1.45907
310.856	0.81947
311.072	0.7968
311.288	1.69875
311.503	1.8299
311.719	0.33909
311.935	0.16721
312.15	1.9752
312.366	1.74277
312.581	2.17426
312.797	1.95421
313.013	2.35835
313.228	1.35231
313.444	1.8278
313.659	1.27657
313.875	2.18629
314.09	1.63447
314.306	2.97956
314.521	2.40584
314.737	2.60962
314.952	2.07455
315.168	1.65282
315.383	2.36481
315.599	1.79201
315.814	1.6186
316.029	2.36712
316.245	0.69932
316.46	0.60181
316.675	3.03694
316.891	3.71833
317.106	4.13016
317.321	2.73663
317.537	2.34243
317.752	2.42686
317.967	2.58478
318.183	1.28148
318.398	1.41778
318.613	2.84402
318.828	3.10209
319.043	2.45535
319.259	1.44295
319.474	2.3781
319.689	2.68616
319.904	0.43591
320.119	2.64924
320.334	2.2323
320.549	1.90871
320.765	2.97373
320.98	2.20316
321.195	2.74893
321.41	1.71957
321.625	2.61917
321.84	3.70042
322.055	3.56182
322.27	1.4294
322.485	1.13659
322.7	2.06615
322.915	2.94321
323.13	1.19268
323.345	3.16256
323.56	2.67507
323.775	2.55242
323.989	2.54808
324.204	2.07902
324.419	2.50498
324.634	0.80269
324.849	1.78124
325.064	4.17399
325.279	2.97465
325.493	2.42269
325.708	2.81877
325.923	1.2552
326.138	1.23476
326.352	3.26582
326.567	2.69052
326.782	1.63414
326.997	1.23759
327.211	2.3815
327.426	2.16643
327.641	1.62923
327.855	0.57009
328.07	2.39679
328.285	3.41561
328.499	1.72812
328.714	2.43135
328.928	2.74825
329.143	1.95664
329.358	2.68898
329.572	2.85314
329.787	3.16877
330.001	4.29579
330.216	0.53008
330.43	3.33611
330.645	3.53697
330.859	2.56702
331.074	1.52218
331.288	2.25014
331.503	3.16313
331.717	1.04631
331.931	1.94239
332.146	2.03358
332.36	3.4107
332.575	2.449
332.789	2.17473
333.003	1.63117
333.218	2.47473
333.432	1.58574
333.646	2.50978
333.86	3.37962
334.075	3.37305
334.289	1.64238
334.503	1.45349
334.717	2.55699
334.932	2.41874
335.146	2.95924
335.36	1.74307
335.574	2.52229
335.788	2.28631
336.003	2.95749
336.217	2.42727
336.431	2.44155
336.645	1.49724
336.859	1.05059
337.073	1.79621
337.287	2.24492
337.501	1.10639
337.715	2.30468
337.929	2.81682
338.143	1.2621
338.357	1.97958
338.571	1.1714
338.785	2.32619
338.999	1.59724
339.213	1.72569
339.427	0.79706
339.641	2.9252
339.855	1.79938
340.069	1.35199
340.283	2.95984
340.497	3.37505
340.711	2.27063
340.924	1.5414
341.138	1.12927
341.352	0.87543
341.566	2.32529
341.78	0.5783
341.993	1.46969
342.207	0.99787
342.421	2.20053
342.635	2.09554
342.848	1.47852
343.062	0.03133
343.276	1.42217
343.49	3.82466
343.703	1.53265
343.917	2.69313
344.131	2.75089
344.344	1.44386
344.558	1.54127
344.771	1.25802
344.985	3.18565
345.199	3.24557
345.412	2.03111
345.626	2.11355
345.839	0.5841
346.053	1.02807
346.266	0.96475
346.48	2.44273
346.693	2.15268
346.907	2.32014
347.12	1.26905
347.334	2.21117
347.547	2.2514
347.76	1.77174
347.974	2.96042
348.187	2.21955
348.401	1.57198
348.614	1.42337
348.827	1.54566
349.041	2.50684
349.254	0.62242
349.467	1.60585
349.681	0.75612
349.894	1.36365
350.107	3.18716
350.32	3.04856
350.534	0.56354
350.747	1.43883
350.96	1.08165
351.173	1.41439
351.386	1.64565
351.6	1.40155
351.813	1.28158
352.026	2.01179
352.239	0.82366
352.452	1.44848
352.665	2.26369
352.878	1.50135
353.092	3.68128
353.305	2.34642
353.518	2.00898
353.731	1.2462
353.944	3.06053
354.157	1.1213
354.37	1.06359
354.583	0.8446
354.796	0.52717
355.009	2.65351
355.222	1.92894
355.435	1.71752
355.647	2.61831
355.86	0.8745
356.073	1.54193
356.286	1.38657
356.499	2.22453
356.712	2.02432
356.925	2.02989
357.138	2.4334
357.35	0.89795
357.563	1.41649
357.776	1.77817
357.989	1.22017
358.201	2.05143
358.414	1.55373
358.627	2.55848
358.84	1.39986
359.052	0.89861
359.265	0.79019
359.478	2.51061
359.69	-0.33407
359.903	2.12399
360.116	2.1958
360.328	0.38177
360.541	2.15901
360.753	0.71847
360.966	1.0757
361.179	1.15656
361.391	1.13196
361.604	0.69131
361.816	1.12797
362.029	0.96201
362.241	0.89589
362.454	0.9546
362.666	0.80678
362.879	1.36325
363.091	1.25379
363.304	0.84832
363.516	1.33986
363.728	0.53666
363.941	1.91972
364.153	0.83953
364.366	-0.08593
364.578	0.62641
364.79	1.7961
365.003	1.2494
365.215	1.26336
365.427	1.77757
365.639	2.48567
365.852	1.84321
366.064	3.09372
366.276	1.08201
366.488	1.79365
366.701	1.1307
366.913	1.38662
367.125	1.22778
367.337	0.98336
367.549	1.11597
367.762	1.42481
367.974	1.68311
368.186	0.78107
368.398	2.36913
368.61	1.98342
368.822	1.93919
369.034	1.56351
369.246	2.0083
369.458	3.316
369.67	0.85152
369.882	2.90556
370.094	0.16841
370.306	2.85366
370.518	1.25692
370.73	0.8314
370.942	0.93917
371.154	1.25907
371.366	1.095
371.578	1.64914
371.79	0.70866
372.002	2.46453
372.214	2.60322
372.425	1.7524
372.637	2.33857
372.849	1.51308
373.061	-0.00748
373.273	1.77825
373.484	1.75106
373.696	2.00033
373.908	-0.06938
374.12	2.12278
374.331	1.76221
374.543	0.88227
374.755	0.66134
374.967	1.7249
375.178	1.945
375.39	1.4606
375.602	1.56863
375.813	0.5971
376.025	0.35073
376.236	1.34812
376.448	1.50479
376.66	0.86932
376.871	0.93616
377.083	2.16755
377.294	2.11895
377.506	1.01103
377.717	2.17897
377.929	1.51532
378.14	0.77043
378.352	1.79032
378.563	1.68134
378.775	2.2965
378.986	0.83851
379.197	1.41526
379.409	1.07919
379.62	1.92115
379.832	1.66419
380.043	1.04785
380.254	1.331
380.466	0.51543
380.677	3.53451
380.888	2.93927
381.1	3.25561
381.311	2.88341
381.522	1.21483
381.733	3.50277
381.945	1.18018
382.156	1.47073
382.367	1.06176
382.578	3.28069
382.789	3.21023
383.001	1.10805
383.212	2.20132
383.423	2.37405
383.634	2.01528
383.845	1.63878
384.056	1.01017
384.267	1.20445
384.478	1.16748
384.69	0.50894
384.901	1.63719
385.112	1.66358
385.323	2.36722
385.534	1.59755
385.745	1.57849
385.956	1.81788
386.167	0.74173
386.378	1.61408
386.588	0.33172
386.799	0.80648
387.01	0.17888
387.221	2.00505
387.432	1.22079
387.643	2.69026
387.854	1.28199
388.065	1.06393
388.275	1.17528
388.486	0.98813
388.697	1.2575
388.908	1.0381
389.119	2.23568
389.329	2.47668
389.54	1.28761
389.751	1.73947
389.962	2.16534
390.172	1.57467
390.383	0.91658
390.594	0.83203
390.804	0.81094
391.015	0.72709
391.226	1.37665
391.436	1.58984
391.647	1.60114
391.858	1.65282
392.068	0.28443
392.279	0.38816
392.489	1.14068
392.7	2.08995
392.91	0.45447
393.121	0.80089
393.331	1.66026
393.542	1.86333
393.752	1.53574
393.963	1.19829
394.173	1.13323
394.384	1.64105
394.594	1.25207
394.804	0.51916
395.015	1.28106
395.225	1.55934
395.436	0.4481
395.646	1.70313
395.856	0.59637
396.067	0.42846
396.277	1.94829
396.487	1.38734
396.697	1.22581
396.908	1.74329
397.118	1.73799
397.328	1.43353
397.538	2.12395
397.749	0.79818
397.959	1.76553
398.169	1.85
398.379	0.44969
398.589	1.7694
398.8	1.30779
399.01	0.97122
399.22	1.32904
399.43	2.92953
399.64	0.97185
399.85	1.73156
400.06	1.1695
400.27	0.82605
400.48	1.47454
400.69	2.3388
400.9	0.99101
401.11	0.98536
401.32	2.14223
401.53	0.9517
401.74	2.50154
401.95	1.97289
402.16	0.60314
402.37	1.43543
402.58	0.9664
402.79	1.86409
403	1.83075
403.209	0.89457
403.419	1.91392
403.629	0.96871
403.839	1.80031
404.049	1.82041
404.258	0.83182
404.468	0.68088
404.678	1.71334
404.888	1.76982
405.097	0.7528
405.307	1.30585
405.517	1.63527
405.727	1.59637
405.936	1.07641
406.146	1.59923
406.356	2.16601
406.565	1.36918
406.775	0.91633
406.984	0.89671
407.194	2.801
407.404	1.40868
407.613	1.65049
407.823	1.97372
408.032	2.25074
408.242	2.1792
408.451	1.1495
408.661	1.41931
408.87	2.66665
409.08	1.17591
409.289	1.82685
409.499	1.65124
409.708	1.7017
409.918	0.31908
410.127	1.57663
410.336	2.57525
410.546	2.16718
410.755	1.29709
410.964	1.33623
411.174	0.92094
411.383	1.97304
411.592	1.8062
411.802	0.91293
412.011	2.31932
412.22	1.63777
412.429	2.83808
412.639	2.68331
412.848	2.54249
413.057	2.85651
413.266	2.55109
413.475	1.73653
413.685	2.47089
413.894	2.36225
414.103	2.52965
414.312	2.31318
414.521	1.7539
414.73	1.95327
414.939	3.27281
415.148	2.20013
415.357	2.09393
415.566	1.81605
415.776	1.67512
415.985	1.51268
416.194	2.47395
416.403	3.08861
416.611	1.17786
416.82	1.60643
417.029	2.11512
417.238	1.51392
417.447	1.47065
417.656	1.79283
417.865	1.53067
418.074	2.05845
418.283	2.18732
418.492	2.95703
418.7	2.9507
418.909	3.82815
419.118	2.55
419.327	3.17519
419.536	2.80569
419.744	2.46885
419.953	3.7817
420.162	3.76011
420.371	2.77581
420.579	2.86067
420.788	3.95131
420.997	4.06735
421.205	4.0137
421.414	3.65232
421.623	3.93127
421.831	3.39065
422.04	4.10818
422.249	3.2099
422.457	3.70661
422.666	3.06677
422.874	4.16486
423.083	4.18874
423.291	4.19046
423.5	3.92749
423.708	4.14319
423.917	4.73134
424.125	3.90728
424.334	3.79117
424.542	5.73347
424.751	4.81146
424.959	4.48879
425.167	5.10099
425.376	4.88371
425.584	3.97411
425.793	4.15865
426.001	3.12661
426.209	3.93675
426.418	2.80658
426.626	2.71832
426.834	2.56269
427.042	2.8901
427.251	2.41887
427.459	3.38422
427.667	2.82485
427.875	2.10616
428.084	2.5536
428.292	3.67341
428.5	3.0261
428.708	2.35133
428.916	2.25035
429.124	2.8741
429.333	2.69056
429.541	2.80187
429.749	2.89259
429.957	2.92401
430.165	4.41663
430.373	2.09754
430.581	2.86297
430.789	3.76031
430.997	2.65751
431.205	2.50233
431.413	3.11214
431.621	2.73285
431.829	3.39572
432.037	2.74326
432.245	3.11607
432.453	3.33756
432.661	2.86252
432.869	4.25151
433.076	2.75967
433.284	3.21264
433.492	3.83344
433.7	4.11491
433.908	3.2311
434.116	3.5252
434.323	3.48634
434.531	3.32981
434.739	3.52004
434.947	3.67404
435.154	3.72105
435.362	3.1968
435.57	3.02796
435.778	2.76452
435.985	3.49983
436.193	2.88996
436.401	3.80688
436.608	3.20234
436.816	2.92387
437.023	4.12782
437.231	4.28837
437.439	3.38228
437.646	3.69201
437.854	3.54612
438.061	3.85896
438.269	3.23497
438.476	3.85166
438.684	3.44573
438.891	3.33823
439.099	3.3322
439.306	3.01241
439.514	3.10383
439.721	4.43745
439.929	3.68181
440.136	4.62582
440.343	4.45385
440.551	4.15747
440.758	6.10764
440.965	4.7441
441.173	4.42027
441.38	3.95535
441.587	4.36149
441.795	3.91413
442.002	3.87659
442.209	3.9081
442.416	4.0462
442.624	3.92159
442.831	3.79647
443.038	3.18657
443.245	3.05199
443.452	3.31519
443.66	3.88592
443.867	3.26302
444.074	3.18982
444.281	3.28128
444.488	3.48084
444.695	3.87453
444.902	3.75877
445.109	4.75225
445.316	4.24587
445.523	4.4193
445.73	4.22391
445.937	5.04366
446.144	5.29778
446.351	5.80524
446.558	4.50694
446.765	6.06121
446.972	5.78236
447.179	5.26416
447.386	6.0033
447.593	4.59877
447.8	5.65997
448.007	4.50435
448.214	4.13792
448.42	3.75288
448.627	4.70452
448.834	3.75063
449.041	3.66466
449.248	3.47143
449.454	3.94972
449.661	4.622
449.868	3.31822
450.075	3.16274
450.281	2.62766
450.488	2.93485
450.695	3.06878
450.901	3.06641
451.108	3.19431
451.315	4.20173
451.521	3.31134
451.728	4.11034
451.935	3.20535
452.141	3.3941
452.348	3.64137
452.554	3.57417
452.761	3.30736
452.967	4.60587
453.174	3.76409
453.38	3.62617
453.587	2.89271
453.793	3.71017
454	4.15461
454.206	4.8491
454.413	4.21895
454.619	4.00309
454.825	3.12913
455.032	3.88277
455.238	4.13229
455.445	2.88741
455.651	3.79215
455.857	2.49504
456.064	3.49758
456.27	3.37338
456.476	3.39441
456.682	2.83602
456.889	3.85305
457.095	3.87643
457.301	4.90166
457.507	3.67517
457.714	3.58799
457.92	3.67405
458.126	3.24783
458.332	3.50295
458.538	3.33636
458.744	3.76985
458.951	3.89188
459.157	5.82082
459.363	4.79246
459.569	4.93126
459.775	5.59893
459.981	4.98449
460.187	5.31202
460.393	5.60758
460.599	6.0467
460.805	5.03447
461.011	4.53991
461.217	4.86486
461.423	4.4865
461.629	3.73518
461.835	4.20215
462.041	3.71371
462.247	4.66322
462.453	3.70469
462.658	3.51282
462.864	4.21903
463.07	4.01252
463.276	3.73739
463.482	3.84013
463.688	4.66753
463.893	3.35693
464.099	3.53106
464.305	4.63607
464.511	3.47555
464.716	3.61923
464.922	4.21465
465.128	3.16111
465.333	4.76749
465.539	4.29923
465.745	3.84855
465.95	4.00487
466.156	5.61316
466.362	4.63213
466.567	3.69643
466.773	3.71434
466.978	4.92098
467.184	3.30769
467.389	2.67976
467.595	4.18018
467.8	3.32365
468.006	4.76149
468.211	4.66505
468.417	3.2078
468.622	4.15909
468.828	4.40922
469.033	4.08208
469.239	5.67331
469.444	3.43469
469.649	4.46704
469.855	3.9166
470.06	4.13777
470.266	3.22632
470.471	4.13601
470.676	4.19501
470.881	2.83816
471.087	4.73517
471.292	5.38897
471.497	2.97116
471.703	3.77611
471.908	3.50327
472.113	4.0202
472.318	4.46723
472.523	3.23178
472.729	4.16276
472.934	4.31992
473.139	3.76241
473.344	4.30272
473.549	4.69314
473.754	3.42402
473.959	5.5309
474.164	3.49633
474.369	3.8839
474.575	4.40629
474.78	4.00119
474.985	3.6884
475.19	2.95786
475.395	3.50055
475.6	3.83178
475.804	4.88589
476.009	4.01322
476.214	3.84841
476.419	3.65252
476.624	3.0795
476.829	3.55793
477.034	4.29542
477.239	3.6052
477.444	4.27348
477.648	4.28975
477.853	4.37369
478.058	3.81697
478.263	3.58998
478.468	3.46221
478.672	3.59854
478.877	4.98184
479.082	5.16035
479.287	4.23291
479.491	4.03974
479.696	3.50259
479.901	4.59852
480.105	4.42896
480.31	3.55522
480.515	4.04555
480.719	5.30833
480.924	3.63926
481.128	3.50942
481.333	4.40186
481.538	4.59764
481.742	4.46963
481.947	5.52485
482.151	5.98254
482.356	6.11465
482.56	7.58361
482.765	8.17804
482.969	10.3193
483.174	11.64329
483.378	13.92287
483.582	13.9092
483.787	15.13747
483.991	15.07576
484.196	15.05058
484.4	14.61822
484.604	15.17639
484.809	12.97662
485.013	12.57814
485.217	11.09783
485.422	9.60687
485.626	8.8388
485.83	8.44274
486.034	8.09313
486.239	8.44867
486.443	8.65221
486.647	8.66884
486.851	9.78356
487.055	10.60829
487.26	10.06741
487.464	10.81292
487.668	10.15074
487.872	10.29386
488.076	10.85643
488.28	10.04887
488.484	9.10182
488.688	9.07897
488.892	8.69211
489.096	8.14918
489.3	7.35842
489.504	6.87888
489.708	6.70943
489.912	6.61882
490.116	6.52212
490.32	5.99283
490.524	6.94091
490.728	7.42011
490.932	7.64948
491.136	8.02914
491.34	8.92572
491.544	9.44019
491.748	8.75656
491.951	8.91318
492.155	8.34913
492.359	8.39425
492.563	7.03328
492.767	6.74943
492.97	6.01441
493.174	5.09221
493.378	4.91256
493.582	4.05222
493.785	4.11654
493.989	4.22972
494.193	3.99945
494.396	3.66994
494.6	4.10602
494.804	3.71952
495.007	3.73802
495.211	3.81544
495.414	3.92065
495.618	4.10273
495.822	4.7284
496.025	4.04705
496.229	4.54659
496.432	3.95469
496.636	4.29595
496.839	4.24824
497.043	5.20631
497.246	4.47801
497.45	4.07142
497.653	4.43212
497.856	4.23981
498.06	3.80663
498.263	3.9449
498.467	3.87696
498.67	4.52892
498.873	4.19712
499.077	3.89411
499.28	3.94084
499.483	4.16918
499.686	4.50341
499.89	4.13016
500.093	4.58877
500.296	3.56169
500.499	4.95379
500.703	3.9559
500.906	4.13316
501.109	5.08466
501.312	4.01363
501.515	3.88012
501.719	4.2764
501.922	4.74326
502.125	4.00854
502.328	3.87409
502.531	3.35003
502.734	4.03969
502.937	2.93522
503.14	4.08201
503.343	3.44449
503.546	3.86534
503.749	3.66638
503.952	4.22214
504.155	3.43817
504.358	4.29949
504.561	4.07117
504.764	3.23785
504.967	3.93277
505.17	3.81697
505.373	4.76514
505.576	3.78009
505.778	4.38939
505.981	3.29452
506.184	4.7694
506.387	2.95364
506.59	5.15274
506.793	4.64541
506.995	4.15214
507.198	2.84982
507.401	4.12912
507.604	4.30537
507.806	3.31411
508.009	3.38064
508.212	4.34295
508.414	3.48915
508.617	3.70904
508.82	3.89754
509.022	4.85358
509.225	4.16846
509.427	2.95551
509.63	4.6444
509.833	3.8304
510.035	3.60823
510.238	2.96238
510.44	4.70456
510.643	2.9247
510.845	5.12731
511.048	4.23589
511.25	3.62467
511.453	3.80586
511.655	4.04456
511.858	3.6627
512.06	4.32338
512.262	3.9364
512.465	4.50736
512.667	3.74858
512.869	3.19421
513.072	4.09877
513.274	4.22845
513.476	4.17607
513.679	4.35446
513.881	3.31407
514.083	4.68042
514.286	3.47414
514.488	3.38921
514.69	3.2573
514.892	3.16506
515.094	4.25364
515.297	3.43105
515.499	3.8188
515.701	3.16698
515.903	4.85409
516.105	4.82464
516.307	4.42376
516.509	2.5861
516.711	3.1554
516.913	3.75723
517.116	3.74168
517.318	3.6374
517.52	4.41534
517.722	4.20071
517.924	3.39364
518.126	4.33676
518.328	3.85051
518.529	4.6412
518.731	5.46556
518.933	3.87849
519.135	4.12255
519.337	4.88946
519.539	4.3199
519.741	2.8503
519.943	3.71293
520.145	3.58499
520.346	4.24969
520.548	3.67245
520.75	3.95904
520.952	3.6963
521.153	3.99851
521.355	3.96388
521.557	3.10983
521.759	3.80458
521.96	3.61022
522.162	2.99611
522.364	4.46061
522.565	3.28921
522.767	4.2467
522.969	4.41438
523.17	3.99419
523.372	3.85824
523.573	3.549
523.775	3.65284
523.977	3.14951
524.178	4.93668
524.38	3.33268
524.581	4.17783
524.783	3.45503
524.984	4.336
525.186	4.0325
525.387	4.57601
525.589	4.35377
525.79	4.16419
525.991	4.10165
526.193	4.79512
526.394	3.88616
526.596	4.86127
526.797	5.00339
526.998	4.6634
527.2	4.50222
527.401	6.27702
527.602	6.66251
527.803	8.45996
528.005	8.53692
528.206	9.28665
528.407	9.76568
528.608	9.5567
528.81	9.82033
529.011	8.94076
529.212	9.94776
529.413	8.78578
529.614	7.91424
529.815	7.87593
530.017	7.06804
530.218	6.09158
530.419	5.20628
530.62	5.08268
530.821	4.97277
531.022	3.90637
531.223	4.89531
531.424	4.92754
531.625	4.91117
531.826	4.66656
532.027	4.98092
532.228	6.14249
532.429	5.72399
532.63	5.78284
532.831	6.39141
533.032	6.31742
533.233	6.96231
533.433	6.38712
533.634	6.79562
533.835	6.14473
534.036	5.54233
534.237	5.34673
534.438	4.9903
534.638	3.96834
534.839	4.10896
535.04	4.38802
535.241	3.70264
535.441	5.08767
535.642	4.41489
535.843	3.70945
536.043	3.89375
536.244	4.0261
536.445	4.24903
536.645	5.00625
536.846	4.6931
537.047	5.0984
537.247	3.7566
537.448	3.87482
537.648	3.8765
537.849	3.67656
538.049	3.71571
538.25	4.15326
538.451	4.15102
538.651	3.1657
538.851	4.01892
539.052	4.55028
539.252	4.28177
539.453	3.71396
539.653	3.96552
539.854	3.92456
540.054	4.24848
540.254	5.49394
540.455	5.96439
540.655	5.48563
540.855	6.42537
541.056	7.20702
541.256	6.82856
541.456	7.70494
541.657	6.78058
541.857	7.80243
542.057	6.07707
542.257	5.81256
542.458	6.3759
542.658	6.24841
542.858	4.82678
543.058	5.6416
543.258	4.93615
543.458	3.66599
543.659	3.51973
543.859	4.5056
544.059	4.38965
544.259	3.79771
544.459	4.3196
544.659	3.49939
544.859	4.03303
545.059	3.39484
545.259	4.27228
545.459	3.83071
545.659	4.33704
545.859	3.90254
546.059	3.88738
546.259	3.40468
546.459	2.99288
546.659	3.1573
546.859	4.20605
547.059	4.12393
547.258	4.02693
547.458	4.13685
547.658	3.1027
547.858	3.04319
548.058	3.89022
548.258	3.5828
548.457	3.01551
548.657	5.32082
548.857	3.49265
549.057	4.25164
549.256	4.31168
549.456	3.34112
549.656	2.46398
549.855	5.34097
550.055	3.39908
550.255	5.25393
550.454	3.92861
550.654	4.42102
550.853	4.91922
551.053	4.54606
551.253	4.18327
551.452	4.33032
551.652	3.01105
551.851	2.70967
552.051	3.75839
552.25	3.6582
552.45	3.32735
552.649	3.7114
552.849	3.27319
553.048	3.88119
553.248	4.32099
553.447	3.16874
553.646	4.35412
553.846	5.47237
554.045	4.5159
554.244	2.88405
554.444	5.15936
554.643	3.4264
554.842	5.12963
555.042	5.47449
555.241	3.271
555.44	3.06862
555.64	4.19297
555.839	5.40543
556.038	4.19786
556.237	3.30983
556.436	3.8102
556.636	4.58112
556.835	3.53707
557.034	5.36258
557.233	4.23023
557.432	3.06788
557.631	4.93601
557.83	3.96389
558.029	3.46249
558.228	3.47729
558.427	3.21515
558.626	4.34374
558.825	3.22935
559.024	4.26052
559.223	5.74137
559.422	3.98279
559.621	4.43739
559.82	2.14531
560.019	3.96228
560.218	3.81255
560.417	1.71523
560.616	3.71426
560.815	6.57704
561.014	2.93277
561.212	5.25335
561.411	4.03858
561.61	2.67256
561.809	3.63008
562.008	5.05393
562.206	3.98863
562.405	4.6671
562.604	3.92365
562.803	4.27184
563.001	4.0215
563.2	3.13135
563.399	4.57784
563.597	2.97798
563.796	4.04113
563.995	2.83693
564.193	4.56005
564.392	3.75394
564.59	5.77366
564.789	2.56463
564.988	3.61742
565.186	4.27945
565.385	3.81507
565.583	3.96831
565.782	3.91293
565.98	3.89731
566.179	4.00292
566.377	3.02448
566.575	3.32428
566.774	5.07811
566.972	4.7307
567.171	5.57027
567.369	5.16567
567.567	4.12505
567.766	4.6164
567.964	2.37459
568.162	4.28807
568.361	5.03069
568.559	3.95931
568.757	4.60921
568.956	4.27117
569.154	4.06748
569.352	4.64541
569.55	4.00046
569.748	4.12919
569.947	3.28111
570.145	3.55898
570.343	3.22855
570.541	5.0394
570.739	3.02821
570.937	4.12875
571.135	4.47866
571.333	5.83275
571.532	5.61972
571.73	4.30823
571.928	5.19951
572.126	4.71273
572.324	3.67217
572.522	5.37286
572.72	6.3431
572.918	4.41854
573.116	4.47614
573.313	4.19476
573.511	4.34231
573.709	3.757
573.907	4.87011
574.105	3.96269
574.303	2.80332
574.501	2.98546
574.699	4.72461
574.896	4.51521
575.094	4.62598
575.292	3.16234
575.49	5.05851
575.688	4.1645
575.885	5.25796
576.083	5.97781
576.281	4.60783
576.478	3.6768
576.676	4.6658
576.874	3.04831
577.071	4.02581
577.269	6.50576
577.467	4.235
577.664	4.46834
577.862	5.34868
578.059	3.66066
578.257	5.11018
578.455	4.1992
578.652	4.6473
578.85	2.66251
579.047	4.43361
579.245	4.60602
579.442	4.41606
579.64	4.46109
579.837	2.81648
580.034	7.05692
580.232	4.18121
580.429	3.33458
580.627	4.93077
580.824	5.94574
581.021	5.02927
581.219	4.01644
581.416	3.83779
581.613	5.96334
581.811	5.94634
582.008	3.88652
582.205	5.55308
582.402	4.80525
582.6	6.73244
582.797	4.71033
582.994	4.99266
583.191	5.56656
583.388	4.54472
583.586	5.35543
583.783	5.7283
583.98	4.06239
584.177	5.01075
584.374	1.43879
584.571	4.62792
584.768	4.59443
584.965	4.04176
585.162	5.32497
585.359	6.47845
585.556	4.6488
585.753	5.31785
585.95	3.40733
586.147	4.02403
586.344	5.41441
586.541	4.73194
586.738	3.45549
586.935	4.76368
587.132	4.05437
587.329	6.00952
587.526	4.9531
587.722	10.30552
587.919	3.35434
588.116	5.14307
588.313	5.8887
588.51	7.39431
588.706	4.03525
588.903	5.42576
589.1	5.70924
589.297	7.71796
589.493	4.8734
589.69	5.5374
589.887	4.26777
590.083	3.99919
590.28	3.91024
590.477	5.57296
590.673	5.6225
590.87	6.23033
591.067	4.64796
591.263	5.58935
591.46	5.4416
591.656	4.41662
591.853	6.74297
592.049	4.14438
592.246	4.19878
592.442	6.65136
592.639	6.2665
592.835	3.94148
593.032	5.32873
593.228	3.29814
593.425	3.55247
593.621	3.29434
593.817	5.24716
594.014	4.26959
594.21	5.02968
594.406	6.36808
594.603	5.48444
594.799	4.49932
594.995	2.33465
595.192	5.91939
595.388	4.1263
595.584	4.6705
595.78	3.7128
595.977	7.53977
596.173	7.03881
596.369	4.77123
596.565	3.92491
596.761	3.52344
596.957	6.24393
597.154	4.1013
597.35	4.31878
597.546	4.27424
597.742	5.73725
597.938	4.96617
598.134	4.17064
598.33	5.12337
598.526	6.6057
598.722	5.21794
598.918	7.14404
599.114	5.79519
599.31	4.14875
599.506	5.25915
599.702	4.42263
599.898	5.22241
600.094	5.90894
600.29	6.0052
600.485	6.30991
600.681	4.51973
600.877	6.97809
601.073	5.37636
601.269	7.6872
601.465	6.67825
601.66	4.31161
601.856	3.03296
602.052	7.46382
602.248	4.75092
602.443	3.03811
602.639	4.16609
602.835	4.47183
603.03	4.20718
603.226	6.28436
603.422	3.93423
603.617	4.66681
603.813	4.66765
604.009	4.62675
604.204	6.34572
604.4	3.76016
604.595	6.13813
604.791	4.06468
604.986	5.48279
605.182	4.22529
605.377	4.63265
605.573	4.59759
605.768	5.26657
605.964	5.66046
606.159	6.05687
606.355	6.45779
606.55	4.61477
606.746	6.63697
606.941	5.07123
607.136	7.89984
607.332	8.95589
607.527	3.72328
607.722	5.64495
607.918	5.24564
608.113	4.47153
608.308	6.02293
608.503	6.005
608.699	5.83763
608.894	6.05175
609.089	4.42931
609.284	5.66396
609.479	4.75825
609.675	6.10906
609.87	5.14104
610.065	6.23166
610.26	6.47468
610.455	6.25367
610.65	5.24717
610.845	5.44958
611.04	6.55942
611.235	5.23915
611.43	4.65089
611.625	3.9011
611.82	7.43125
612.015	4.9707
612.21	7.70104
612.405	3.88655
612.6	8.01486
612.795	7.22384
612.99	6.27997
613.185	4.37295
613.38	4.69441
613.575	6.00338
613.77	9.38669
613.965	3.61328
614.159	4.40475
614.354	7.39778
614.549	7.40309
614.744	6.25527
614.938	4.3154
615.133	3.72548
615.328	8.00009
615.523	7.32143
615.717	10.0348
615.912	4.93517
616.107	5.84303
616.301	5.62381
616.496	4.71182
616.691	8.06632
616.885	7.07978
617.08	9.95088
617.274	7.3556
617.469	8.82423
617.664	6.99022
617.858	5.35178
618.053	6.12057
618.247	5.45114
618.442	2.49955
618.636	8.02027
618.831	4.99734
619.025	5.15921
619.219	10.06876
619.414	1.25142
619.608	5.91165
619.803	4.90496
619.997	9.37373
620.191	7.98335
620.386	6.62117
620.58	5.92476
620.774	3.96884
620.969	3.38889
621.163	6.05519
621.357	4.57181
621.551	5.88947
621.746	6.34655
621.94	5.68587
622.134	11.47776
622.328	9.53884
622.522	4.01924
622.716	7.74558
622.911	7.45077
623.105	7.38048
623.299	6.84508
623.493	11.22932
623.687	4.78257
623.881	5.35735
624.075	6.85262
624.269	7.88754
624.463	3.28082
624.657	3.90949
624.851	7.09084
625.045	7.33915
625.239	7.62889
625.433	5.39128
625.627	8.54861
625.821	5.03378
626.015	4.68363
626.209	6.0654
626.403	3.64908
626.596	6.58078
626.79	7.28425
626.984	4.21841
627.178	6.76177
627.372	6.44241
627.565	7.16869
627.759	4.19051
627.953	4.32198
628.147	6.70874
628.34	6.79599
628.534	9.00023
628.728	5.89357
628.921	7.39343
629.115	7.27603
629.309	7.68355
629.502	8.10107
629.696	6.38251
629.89	6.04881
630.083	6.39366
630.277	7.10217
630.47	9.18774
630.664	5.94141
630.857	3.64727
631.051	7.51052
631.244	8.5337
631.438	8.35521
631.631	5.11126
631.825	8.92951
632.018	7.9344
632.212	9.2218
632.405	8.75566
632.598	5.53028
632.792	6.73228
632.985	2.85121
633.178	6.05898
633.372	6.24936
633.565	6.46843
633.758	9.17253
633.952	4.88902
634.145	5.03499
634.338	6.46392
634.531	5.51603
634.724	5.69147
634.918	6.23229
635.111	5.66446
635.304	5.49648
635.497	10.47681
635.69	7.28626
635.883	8.68953
636.077	4.54642
636.27	7.55872
636.463	7.30578
636.656	7.41214
636.849	5.65187
637.042	8.00959
637.235	9.65782
637.428	8.15901
637.621	8.5784
637.814	9.38572
638.007	10.24272
638.2	9.47505
638.393	10.58099
638.586	4.85571
638.778	6.28141
638.971	6.94803
639.164	10.57155
639.357	7.73012
639.55	10.26942
639.743	8.31631
639.935	8.45126
640.128	11.18051
640.321	8.47915
640.514	7.33061
640.707	11.94417
640.899	8.39899
641.092	4.42326
641.285	23.8223
641.477	2.9187
641.67	12.09618
641.863	9.86077
642.055	7.99342
642.248	7.48573
642.441	6.30911
642.633	8.80138
642.826	10.52136
643.018	10.07419
643.211	11.13081
643.403	11.81601
643.596	12.08586
643.788	11.53496
643.981	7.39523
644.173	10.08685
644.366	7.60953
644.558	3.75781
644.751	10.32715
644.943	4.97474
645.135	11.92488
645.328	12.09444
645.52	9.13044
645.712	9.8817
645.905	15.39003
646.097	5.77162
646.289	8.21471
646.482	12.95833
646.674	6.26035
646.866	9.95505
647.058	8.93063
647.251	5.98984
647.443	6.63402
647.635	7.36984
647.827	5.92858
648.019	6.81761
648.211	7.58429
648.404	8.27379
648.596	11.82149
648.788	8.60915
648.98	8.52542
649.172	9.29308
649.364	9.19388
649.556	4.38398
649.748	13.54265
649.94	6.59702
650.132	9.66418
650.324	5.96007
650.516	7.00487
650.708	11.08785
650.9	5.42399
651.092	7.24997
651.284	4.88154
651.476	5.83872
651.667	9.39847
651.859	11.38068
652.051	7.95427
652.243	8.13932
652.435	7.29991
652.627	9.22051
652.818	8.60022
653.01	4.76523
653.202	6.13703
653.394	6.70345
653.585	9.27436
653.777	18.03785
653.969	11.64063
654.16	10.90178
654.352	5.65636
654.544	7.35745
654.735	11.44865
654.927	8.37203
655.118	12.12006
655.31	10.23553
655.502	11.03361
655.693	7.20798
655.885	9.97918
656.076	11.53432
656.268	8.68815
656.459	12.01257
656.651	12.04659
656.842	7.32898
657.034	6.77472
657.225	10.55625
657.416	11.48179
657.608	11.97554
657.799	8.74175
657.99	10.96348
658.182	7.02498
658.373	7.11479
658.564	10.2908
658.756	8.34113
658.947	7.86954
659.138	5.89134
659.33	7.03305
659.521	6.56414
659.712	8.02868
659.903	8.05204
660.094	7.25318
660.286	4.77058
660.477	11.90299
660.668	9.54374
660.859	7.91456
661.05	5.21376
661.241	10.41351
661.432	9.5216
661.623	8.67034
661.814	7.17058
662.006	5.04712
662.197	9.29431
662.388	11.92922
662.579	9.79004
662.77	12.29222
662.96	16.98038
663.151	12.00557
663.342	4.61919
663.533	10.53553
663.724	8.99892
663.915	14.04019
664.106	9.55805
664.297	13.96211
664.488	10.46004
664.678	7.98798
664.869	11.09004
665.06	12.46181
665.251	10.7432
665.442	10.50688
665.632	5.82238
665.823	14.72086
666.014	1.9888
666.204	11.18765
666.395	13.30245
666.586	17.5972
666.776	11.14765
666.967	14.83441
667.158	10.42413
667.348	13.25605
667.539	6.83339
667.729	12.02003
667.92	7.66261
668.111	12.18329
668.301	11.60165
668.492	8.75315
668.682	9.58811
668.873	9.02266
669.063	6.80472
669.253	9.83847
669.444	12.29435
669.634	9.22339
669.825	14.49311
670.015	12.29012
670.206	7.51611
670.396	15.2675
670.586	9.80895
670.777	11.63025
670.967	4.02283
671.157	9.1469
671.347	7.60775
671.538	15.20268
671.728	12.45586
671.918	15.31546
672.108	12.58575
672.299	9.69409
672.489	11.04294
672.679	8.94501
672.869	11.58557
673.059	16.5575
673.249	12.64365
673.44	6.71718
673.63	10.3368
673.82	13.28106
674.01	8.32759
674.2	12.60408
674.39	19.39088
674.58	13.0272
674.77	10.52435
674.96	10.10702
675.15	23.53826
675.34	14.51265
675.53	11.16997
675.72	9.6338
675.91	6.35255
676.099	16.28265
676.289	18.57731
676.479	13.60826
676.669	9.23248
676.859	12.37683
677.049	8.05238
677.238	10.66801
677.428	16.03306
677.618	12.76178
677.808	15.19696
677.997	12.22419
678.187	6.75324
678.377	10.52621
678.567	9.2119
678.756	8.64854
678.946	9.67798
679.136	6.92927
679.325	8.40421
679.515	7.90072
679.704	6.29114
679.894	12.13358
680.084	11.34253
680.273	13.2936
680.463	7.88376
680.652	7.66736
680.842	9.7691
681.031	12.39787
681.221	7.95191
681.41	11.87871
681.6	10.05459
681.789	13.26426
681.978	14.32241
682.168	10.77899
682.357	10.82176
682.547	12.86354
682.736	12.208
682.925	14.80887
683.115	14.24436
683.304	13.06894
683.493	12.29731
683.682	12.51891
683.872	12.48126
684.061	15.99257
684.25	14.09886
684.439	18.88928
684.629	13.64464
684.818	23.10192
685.007	10.90937
685.196	10.90943
685.385	17.27914
685.574	13.37573
685.763	13.37877
685.952	12.60546
686.142	8.57291
686.331	16.46157
686.52	6.24757
686.709	17.39276
686.898	17.38137
687.087	13.94387
687.276	18.1188
687.465	17.16775
687.654	11.34496
687.842	17.90089
688.031	7.36634
688.22	17.32254
688.409	13.37907
688.598	13.2553
688.787	21.4967
688.976	12.9825
689.165	20.03123
689.353	11.15199
689.542	13.42061
689.731	16.29498
689.92	21.55116
690.108	16.11013
690.297	11.14016
690.486	12.50926
690.675	16.20774
690.863	19.86107
691.052	18.95624
691.241	15.13915
691.429	14.01308
691.618	18.6005
691.806	9.02596
691.995	12.0722
692.184	12.99491
692.372	11.50661
692.561	13.81804
692.749	14.28551
692.938	24.90388
693.126	15.99339
693.315	14.17928
693.503	16.75701
693.692	16.8033
693.88	17.79987
694.068	22.43322
694.257	13.9733
694.445	15.5275
694.634	5.17058
694.822	18.43688
695.01	19.47554
695.199	21.33831
695.387	19.99592
695.575	18.8606
695.763	13.74466
695.952	12.03578
696.14	7.87764
696.328	12.13373
696.516	14.49243
696.705	14.33997
696.893	15.26084
697.081	7.78679
697.269	17.12984
697.457	10.1631
697.645	9.46575
697.833	16.31935
698.021	11.02458
698.21	12.00521
698.398	12.30813
698.586	8.80197
698.774	8.9761
698.962	12.3121
699.15	9.7157
699.338	7.68292
699.526	14.12764
699.714	10.19907
699.901	10.30621
700.089	16.38081
700.277	10.1784
700.465	11.72273
700.653	16.12771
700.841	14.78879
701.029	10.13106
701.217	18.22626
701.404	14.35338
701.592	19.24996
701.78	22.66743
701.968	12.74312
702.155	14.12674
702.343	7.13959
702.531	20.09204
702.718	16.13797
702.906	13.18774
703.094	10.76879
703.281	20.30746
703.469	13.80194
703.657	18.80526
703.844	29.31451
704.032	22.94733
704.219	12.18751
704.407	17.1381
704.595	21.22943
704.782	16.4302
704.97	13.34128
705.157	13.72931
705.345	22.89313
705.532	29.6339
705.719	19.03253
705.907	21.68377
706.094	16.48773
706.282	25.26479
706.469	15.08432
706.656	16.61284
706.844	14.17363
707.031	20.85747
707.218	17.3393
707.406	24.40684
707.593	20.61361
707.78	19.92437
707.968	15.72711
708.155	11.95377
708.342	19.00956
708.529	19.90431
708.716	17.46275
708.904	25.4325
709.091	18.9248
709.278	11.02201
709.465	25.93809
709.652	25.35767
709.839	23.51615
710.026	19.28316
710.213	9.29291
710.4	18.51725
710.587	22.10102
710.774	23.20488
710.961	23.27572
711.148	17.59121
711.335	23.04523
711.522	17.70307
711.709	20.20895
711.896	29.14129
712.083	22.20556
712.27	13.82514
712.457	18.67987
712.644	10.63325
712.831	29.04968
713.017	19.20732
713.204	21.46443
713.391	14.82334
713.578	24.26043
713.765	26.13814
713.951	23.03726
714.138	35.76038
714.325	21.36527
714.512	18.13832
714.698	14.93368
714.885	26.34413
715.072	20.43193
715.258	19.87894
715.445	15.7608
715.631	25.53735
715.818	7.1681
716.005	17.06797
716.191	21.92086
716.378	17.2634
716.564	23.91082
716.751	15.4104
716.937	15.88813
717.124	26.20348
717.31	15.46292
717.497	29.75788
717.683	16.17117
717.869	33.13359
718.056	17.58834
718.242	22.67541
718.429	18.74449
718.615	13.78504
718.801	20.32241
718.988	26.10613
719.174	23.69986
719.36	20.01752
719.547	26.00174
719.733	22.70261
719.919	23.11291
720.105	27.04046
720.291	20.01322
720.478	21.85259
720.664	19.64057
720.85	16.68212
721.036	38.59877
721.222	31.6299
721.408	19.99409
721.595	32.11889
721.781	33.11709
721.967	28.60254
722.153	31.44348
722.339	24.85265
722.525	24.57042
722.711	16.64092
722.897	13.69741
723.083	18.62306
723.269	27.13981
723.455	39.38831
723.641	42.1923
723.827	24.62829
724.012	25.56974
724.198	22.26427
724.384	31.30777
724.57	24.83238
724.756	13.68729
724.942	9.47406
725.127	29.20282
725.313	32.19159
725.499	30.46731
725.685	35.82553
725.87	23.22048
726.056	15.31336
726.242	31.78289
726.428	13.98972
726.613	28.36223
726.799	21.2536
726.985	16.16414
727.17	13.82622
727.356	35.30103
727.541	16.5689
727.727	21.87053
727.913	27.45654
728.098	20.56732
728.284	26.67081
728.469	14.96621
728.655	15.60439
728.84	30.6501
729.026	26.65536
729.211	29.93089
729.397	26.06117
729.582	27.13556
729.767	22.06874
729.953	25.36246
730.138	30.18262
730.323	7.33663
730.509	15.564
730.694	33.48682
730.879	26.6164
731.065	23.63976
731.25	38.6694
731.435	27.26981
731.621	13.44366
731.806	20.70031
731.991	24.20988
732.176	13.12188
732.361	33.21138
732.547	27.45742
732.732	12.14246
732.917	40.76485
733.102	14.03817
733.287	18.70627
733.472	24.06407
733.657	24.0781
733.842	12.18723
734.027	20.64429
734.212	21.64923
734.397	18.52956
734.582	24.66841
734.767	28.991
734.952	33.98636
735.137	7.32066
735.322	32.93875
735.507	23.85943
735.692	26.01696
735.877	39.6115
736.062	38.97372
736.247	26.73707
736.431	22.00263
736.616	33.81711
736.801	26.46661
736.986	26.01046
737.171	17.23497
737.355	13.62887
737.54	33.06688
737.725	23.4306
737.909	46.43782
738.094	20.79212
738.279	30.90384
738.463	22.7813
738.648	30.40142
738.833	29.34839
739.017	42.62256
739.202	23.91182
739.386	24.0933
739.571	20.25096
739.756	34.35839
739.94	27.25712
740.125	32.23955
740.309	20.1468
740.494	31.15335
740.678	28.69093
740.863	29.57253
741.047	28.57297
741.231	37.14557
741.416	21.07108
741.6	38.12367
741.785	18.92662
741.969	33.42394
742.153	35.4634
742.338	7.67718
742.522	25.50088
742.706	33.2737
742.89	15.85951
743.075	28.18662
743.259	38.06122
743.443	36.87059
743.627	35.66482
743.812	46.16776
743.996	13.93444
744.18	26.98603
744.364	23.14272
744.548	50.25279
744.732	26.12238
744.916	31.73398
745.1	31.18653
745.285	25.66901
745.469	31.72462
745.653	42.54435
745.837	15.29681
746.021	50.30994
746.205	38.04249
746.389	29.74836
746.573	22.46614
746.757	41.2113
746.94	25.29755
747.124	40.55628
747.308	17.09062
747.492	37.4495
747.676	23.17547
747.86	48.42201
748.044	22.76401
748.227	12.41337
748.411	64.60055
748.595	32.72352
748.779	21.64852
748.963	32.99114
749.146	30.48358
749.33	21.12713
749.514	20.31126
749.697	38.26484
749.881	22.49905
750.065	17.29178
750.248	28.17444
750.432	52.44268
750.616	28.3487
750.799	15.50724
750.983	51.06354
751.166	55.06379
751.35	15.36818
751.533	35.84604
751.717	44.02813
751.9	43.55878
752.084	24.56446
752.267	16.33883
752.451	21.93162
752.634	31.43223
752.818	32.27236
753.001	36.97945
753.184	39.0364
753.368	32.20155
753.551	0.58814
753.734	22.67108
753.918	52.37891
754.101	21.4679
754.284	34.87532
754.467	25.26408
754.651	23.36949
754.834	23.84163
755.017	41.75951
755.2	36.70943
755.384	18.68889
755.567	35.08629
755.75	39.57649
755.933	24.66239
756.116	32.59129
756.299	23.66434
756.482	20.9763
756.665	37.64922
756.848	33.41499
757.032	36.346
757.215	13.56351
757.398	22.86832
757.581	20.9167
757.764	57.69852
757.947	29.02856
758.129	41.72359
758.312	1.70928
758.495	28.86556
758.678	27.51397
758.861	28.77374
759.044	53.32022
759.227	22.55316
759.41	22.06908
759.592	38.41089
759.775	30.22244
759.958	38.43911
760.141	17.27635
760.324	50.55697
760.506	47.93379
760.689	37.68419
760.872	54.77688
761.054	35.78635
761.237	21.23516
761.42	35.34722
761.602	41.02837
761.785	34.94265
761.968	41.67467
762.15	49.48509
762.333	28.8158
762.515	34.64248
762.698	23.36033
762.88	34.67085
763.063	31.49789
763.245	38.10593
763.428	19.77937
763.61	22.97323
763.793	16.52474
763.975	31.53313
764.158	24.45325
764.34	22.88931
764.522	20.18337
764.705	25.95175
764.887	41.49137
765.069	14.64836
765.252	35.95818
765.434	36.70229
765.616	28.14696
765.799	21.47175
765.981	36.44428
766.163	20.22765
766.345	39.30952
766.528	23.16735
766.71	6.45892
766.892	30.55144
767.074	44.88481
767.256	26.20343
767.438	47.8678
767.62	34.61626
767.802	56.94793
767.985	41.6253
768.167	51.46171
768.349	24.88558
768.531	39.13126
768.713	34.7029
768.895	46.04944
769.077	34.94438
769.259	65.13583
769.441	93.12547
769.623	47.74306
769.804	58.31704
769.986	50.57198
770.168	66.52173
770.35	79.7094
770.532	64.08531
770.714	57.83503
770.896	70.52033
771.077	23.05599
771.259	65.14162
771.441	54.89801
771.623	70.33283
771.804	94.70949
771.986	20.73465
772.168	46.0034
772.35	68.51107
772.531	94.30736
772.713	51.83786
772.894	69.34312
773.076	51.49724
773.258	41.05734
773.439	77.03621
773.621	79.80763
773.802	27.85976
773.984	48.61246
774.166	61.17769
774.347	85.99032
774.529	68.43933
774.71	17.52651
774.891	44.28841
775.073	45.29899
775.254	91.68956
775.436	43.94804
775.617	91.08936
775.799	44.89565
775.98	81.72218
776.161	85.14522
776.343	86.7992
776.524	52.38927
776.705	47.79753
776.886	27.00468
777.068	54.60687
777.249	113.42021
777.43	95.96476
777.611	29.94332
777.793	53.55777
777.974	89.74228
778.155	47.13955
778.336	39.1594
778.517	93.89002
778.698	45.37202
778.879	18.28618
779.061	2.17273
779.242	64.42812
779.423	59.22523
779.604	38.10716
779.785	49.05155
779.966	61.60915
780.147	71.52883
780.328	78.78309
780.509	103.37608
780.69	72.22102
780.871	49.14163
781.051	24.51945
781.232	57.2652
781.413	62.21551
781.594	41.63424
781.775	44.35911
781.956	42.09691
782.137	21.85528
782.317	40.82915
782.498	62.25751
782.679	61.91649
782.86	62.03759
783.04	37.0095
783.221	65.18453
783.402	98.80983
783.583	52.69654
783.763	78.93141
783.944	45.54286
784.124	30.64279
784.305	91.64071
784.486	69.86212
784.666	50.18336
784.847	22.54048
785.027	117.9521
785.208	39.38103
785.388	42.32269
785.569	36.06396
785.749	49.36354
785.93	36.98547
786.11	28.7093
786.291	55.45167
786.471	62.37462
786.652	70.8192
786.832	51.97659
787.012	66.01617
787.193	36.23223
787.373	52.19658
787.553	47.44038
787.734	54.74383
787.914	45.46744
788.094	66.53768
788.275	57.66817
788.455	42.0354
788.635	28.93819
788.815	57.09617
788.995	31.45234
789.176	27.15491
789.356	38.98409
789.536	47.52607
789.716	59.77899
789.896	37.61262
790.076	45.82085
790.256	58.38997
790.436	14.41865
790.616	34.28105
790.796	60.9576
790.976	47.30534
791.156	41.41685
791.336	66.91922
791.516	60.91438
791.696	51.16118
791.876	23.78544
792.056	56.5156
792.236	77.60088
792.416	66.99974
792.596	65.4063
792.776	62.17876
792.956	72.98305
793.135	89.81773
793.315	33.43178
793.495	82.11333
793.675	69.36724
793.854	71.86901
794.034	76.12984
794.214	28.72069
794.394	70.50531
794.573	78.34384
794.753	57.57417
794.933	42.0894
795.112	61.13729
795.292	72.38465
795.472	91.46935
795.651	29.82742
795.831	57.74424
796.01	45.43738
796.19	42.60525
796.369	48.82439
796.549	64.67265
796.728	48.65322
796.908	34.36679
797.087	32.71739
797.267	51.90611
797.446	31.52066
797.626	55.44191
797.805	57.61113
797.984	42.94116
798.164	65.96057
798.343	37.40146
798.522	59.33197
798.702	50.07192
798.881	31.43341
799.06	44.9539
799.239	18.46955
799.419	31.20671
799.598	87.4471
799.777	62.77975
799.956	75.66053
800.136	53.32034
800.315	35.77532
800.494	56.72047
800.673	71.375
800.852	69.96595
801.031	74.53693
801.21	67.96724
801.389	38.44567
801.568	58.57944
801.747	88.79152
801.926	49.09364
802.105	88.22637
802.284	51.06978
802.463	85.92135
802.642	59.08929
802.821	58.21404
803	78.89822
803.179	71.8243
803.358	76.88769
803.537	42.82068
803.716	68.88788
803.895	42.15626
804.073	52.27171
804.252	48.1908
804.431	66.52549
804.61	60.06713
804.789	82.26907
804.967	46.45526
805.146	43.2122
805.325	107.50909
805.503	65.26107
805.682	29.19796
805.861	120.03343
806.039	81.42287
806.218	38.86612
806.397	65.4128
806.575	56.97279
806.754	59.71957
806.932	38.12165
807.111	86.10731
807.289	77.85884
807.468	64.08232
807.646	75.67103
807.825	62.44008
808.003	64.09091
808.182	83.16652
808.36	64.10546
808.539	37.98318
808.717	90.86926
808.895	39.51493
809.074	62.15653
809.252	51.88665
809.43	83.14624
809.609	81.43488
809.787	108.09531
809.965	52.96404
810.144	60.73452
810.322	47.98474
810.5	74.2155
810.678	65.40319
810.856	103.18853
811.035	87.44334
811.213	85.97784
811.391	76.34695
811.569	65.52654
811.747	131.72593
811.925	87.10138
812.103	49.69072
812.281	52.69515
812.459	115.04608
812.637	103.9238
812.816	90.95997
812.994	112.33125
813.171	88.90185
813.349	86.19745
813.527	101.60726
813.705	95.20356
813.883	113.7527
814.061	89.69145
814.239	117.75799
814.417	123.30337
814.595	78.42186
814.773	72.04898
814.95	72.62704
815.128	79.77524
815.306	61.2681
815.484	62.57441
815.662	48.93805
815.839	43.16416
816.017	50.04729
816.195	93.17148
816.372	55.39077
816.55	96.00743
816.728	103.59312
816.905	56.54373
817.083	101.67757
817.261	67.99083
817.438	145.56731
817.616	121.14519
817.793	52.43015
817.971	80.79767
818.148	76.22672
818.326	106.4661
818.503	77.94811
818.681	95.91936
818.858	53.27475
819.036	70.17278
819.213	70.58464
819.391	52.3041
819.568	44.07794
819.745	39.5715
819.923	78.0385
820.1	49.69791
820.277	42.3428
820.455	48.82347
820.632	52.92822
820.809	57.888
820.986	30.6136
821.164	25.15681
821.341	20.25352
821.518	32.79207
821.695	22.61526
821.872	20.48816
822.05	17.03741
822.227	12.72841
822.404	14.34549
822.581	17.61587
822.758	13.81266
822.935	13.75163
823.112	16.31658
823.289	12.41491
823.466	16.31267
823.643	14.29863
823.82	18.69696
823.997	15.8741
824.174	18.504
824.351	27.20687
824.528	25.38618
824.705	22.44592
824.882	25.15381
825.059	35.7505
825.236	21.11904
825.412	24.07652
825.589	32.81735
825.766	48.72477
825.943	26.60982
826.12	32.01644
826.296	20.95062
826.473	29.94378
826.65	31.07019
826.827	40.19822
827.003	23.37374
827.18	26.92389
827.357	32.13308
827.533	25.14959
827.71	12.43271
827.887	21.78657
828.063	27.30144
828.24	22.20215
828.416	32.51735
828.593	24.08558
828.769	39.80411
828.946	43.55648
829.122	42.50096
829.299	46.46381
829.475	17.96416
829.652	41.4466
829.828	72.84736
830.005	43.89726
830.181	60.459
830.357	39.15943
830.534	68.84243
830.71	51.69967
830.886	68.88276
831.063	63.74791
831.239	83.32199
831.415	32.12735
831.592	99.92195
831.768	49.6375
831.944	45.33519
832.12	95.57787
832.296	93.83712
832.473	72.13624
832.649	46.83751
832.825	71.58684
833.001	36.30757
833.177	58.95533
833.353	52.40133
833.529	27.04885
833.705	42.87742
833.881	28.49566
834.058	26.76934
834.234	29.44973
834.41	29.87211
834.586	22.88118
834.761	25.99201
834.937	31.79749
835.113	32.41119
835.289	27.17935
835.465	35.18155
835.641	30.72788
835.817	31.47728
835.993	70.68914
836.169	30.59552
836.344	48.10041
836.52	56.42318
836.696	66.53884
836.872	42.36053
837.048	143.08142
837.223	46.66459
837.399	120.9029
837.575	96.34214
837.75	77.00386
837.926	121.32949
838.102	197.28214
838.277	158.18564
838.453	215.74525
838.628	203.92756
838.804	62.28158
838.98	184.23624
839.155	101.97201
839.331	125.64623
839.506	92.57202
839.682	85.9843
839.857	107.83918
840.033	132.63163
840.208	49.01222
840.384	29.98159
840.559	56.62475
840.734	93.05671
840.91	138.67472
841.085	86.58122
841.26	95.08149
841.436	81.36343
841.611	74.04427
841.786	106.60217
841.962	162.86263
842.137	111.67223
842.312	59.25149
842.487	85.75512
842.663	70.92729
842.838	93.75678
843.013	299.16525
843.188	174.08528
843.363	139.64221
843.538	294.05919
843.714	347.91607
843.889	331.70641
844.064	303.92624
844.239	233.20185
844.414	466.93966
844.589	251.14815
844.764	392.85262
844.939	363.84246
845.114	409.21205
845.289	426.99652
845.464	516.25585
845.639	365.49559
845.814	189.54199
845.989	317.33706
846.163	221.1389
846.338	304.76275
846.513	411.43993
846.688	251.55568
846.863	312.79874
847.038	213.59845
847.212	299.50497
847.387	323.11479
847.562	278.04928
847.737	457.09037
847.911	175.28647
848.086	170.29609
848.261	411.73801
848.435	263.05518
848.61	366.73608
848.785	181.59713
848.959	424.36456
849.134	446.53283
849.308	639.82349
849.483	317.98235
849.658	534.8246
849.832	258.63285
850.007	196.7737
850.181	627.98258
850.356	275.83668
850.53	783.33947
850.705	330.2643
850.879	128.98366
851.053	283.49942
851.228	291.86245
851.402	471.8799
851.577	441.01849
851.751	592.51653
851.925	312.10153
852.099	124.77584
852.274	248.46682
852.448	305.97461
852.622	441.58688
852.797	301.96293
852.971	313.71648
853.145	418.73392
853.319	743.0206
853.493	638.12266
853.668	470.42456
853.842	773.94493
854.016	475.53379
854.19	645.38284
854.364	337.57574
854.538	344.87085
854.712	702.1361
854.886	381.50178
855.06	287.06999
855.234	92.636
855.408	602.32593
855.582	415.22499
855.756	607.76729
855.93	556.16379
856.104	607.53793
856.278	551.49758
856.452	363.04409
856.626	380.01577
856.8	924.68232
856.973	383.11676
857.147	493.81633
857.321	464.9276
857.495	493.70804
857.669	315.91656
857.842	397.19662
858.016	553.16954
858.19	214.49701
858.364	767.35426
858.537	364.21841
858.711	497.13708
858.885	366.00665
859.058	240.84721
859.232	166.30248
859.405	131.30517
859.579	471.64424
859.753	506.70524
859.926	231.29073
860.1	211.04135
860.273	365.26421
860.447	469.49845
860.62	369.75762
860.794	607.28319
860.967	342.02213
861.141	441.4633
861.314	783.12541
861.487	442.47717
861.661	453.6039
861.834	517.2752
862.008	699.2217
862.181	398.54484
862.354	511.86877
862.528	470.72045
862.701	297.9436
862.874	195.80125
863.047	270.58176
863.221	275.16271
863.394	173.85829
863.567	405.07836
863.74	106.31129
863.913	508.01533
864.087	498.07454
864.26	452.98905
864.433	330.20702
864.606	592.5093
864.779	353.23835
864.952	156.00101
865.125	408.59486
865.298	308.6219
865.471	329.71799
865.644	758.51882
865.817	477.18541
865.99	492.77001
866.163	456.501
866.336	247.21667
866.509	333.83466
866.682	572.60529
866.855	715.97014
867.028	186.79137
867.2	364.29421
867.373	89.38099
867.546	362.63396
867.719	661.52039
867.892	430.68459
868.064	231.65137
868.237	323.4742
868.41	334.78662
868.583	166.00482
868.755	210.66732
868.928	387.77784
869.101	827.68767
869.273	531.82013
869.446	533.52958
869.619	574.94698
869.791	384.20028
869.964	473.69105
870.136	845.31234
870.309	346.4848
870.481	417.06248
870.654	215.85701
870.826	303.00315
870.999	215.1951
871.171	375.64901
871.344	240.47085
871.516	281.54705
871.689	258.87708
871.861	313.64018
872.033	270.41405
872.206	254.60697
872.378	316.84634
872.55	356.18517
872.723	171.63152
872.895	297.57964
873.067	430.34143
873.24	357.04302
873.412	302.25416
873.584	349.40641
873.756	320.84278
873.928	455.79826
874.101	325.59841
874.273	393.11978
874.445	109.84849
874.617	231.89753
874.789	298.18712
874.961	318.11989
875.133	357.00059
875.305	364.50521
875.477	280.32761
875.649	161.79358
875.821	170.20893
875.993	610.99869
876.165	299.07963
876.337	353.51571
876.509	305.04157
876.681	382.88541
876.853	328.70443
877.025	346.11593
877.197	224.47481
877.369	160.86594
877.541	317.53919
877.712	98.72919
877.884	153.9816
878.056	334.39141
878.228	166.3374
878.4	405.10198
878.571	163.40501
878.743	97.55575
878.915	267.0328
879.086	126.12632
879.258	170.46756
879.43	167.93301
879.601	133.07305
879.773	124.60423
879.945	18.86114
880.116	50.79681
880.288	26.40323
880.459	31.67402
880.631	21.46098
880.802	27.50102
880.974	24.2254
881.145	15.58646
881.317	23.38281
881.488	16.13571
881.66	18.66781
881.831	17.06645
882.002	23.66589
882.174	16.64157
882.345	22.18682
882.517	8.66472
882.688	27.96065
882.859	19.81463
883.03	36.31399
883.202	33.61641
883.373	26.54012
883.544	23.90987
883.715	50.78832
883.887	42.24136
884.058	33.67312
884.229	55.00847
884.4	52.63657
884.571	67.0696
884.742	53.86433
884.914	53.27875
885.085	96.29561
885.256	138.45059
885.427	117.19035
885.598	136.2764
885.769	140.04963
885.94	132.96439
886.111	78.87513
886.282	159.90503
886.453	142.98041
886.624	112.39093
886.795	202.35042
886.966	170.5343
887.136	196.44939
887.307	138.22522
887.478	301.75925
887.649	252.87429
887.82	244.32782
887.991	204.08824
888.161	345.3402
888.332	336.38354
888.503	125.20632
888.674	370.6141
888.844	542.80122
889.015	329.86744
889.186	231.8161
889.356	497.05496
889.527	191.89794
889.698	645.18117
889.868	219.87659
890.039	378.67265
890.209	251.7894
890.38	377.57792
890.551	340.13833
890.721	395.65153
890.892	475.53563
891.062	407.64843
891.233	473.07893
891.403	449.7672
891.574	298.24983
891.744	263.97882
891.914	314.78558
892.085	375.40797
892.255	81.1136
892.425	441.63186
892.596	296.11662
892.766	366.26455
892.936	460.82942
893.107	390.38964
893.277	163.31493
893.447	192.39947
893.618	97.89408
893.788	179.42953
893.958	114.55226
894.128	92.42156
894.298	115.68401
894.468	149.98424
894.639	69.79167
894.809	30.32902
894.979	72.31499
895.149	80.72537
895.319	66.97839
895.489	101.77274
895.659	140.87196
895.829	80.33537
895.999	78.03675
896.169	66.1472
896.339	89.73113
896.509	184.31404
896.679	192.8113
896.849	206.20868
897.019	274.60403
897.189	234.0735
897.358	203.67795
897.528	328.05816
897.698	203.70548
897.868	291.18132
898.038	619.88071
898.208	583.64596
898.377	179.76817
898.547	950.3203
898.717	1384.45582
898.886	405.05207
899.056	621.10754
899.226	1466.67697
899.395	711.80369
899.565	1217.77967
899.735	858.28324
899.904	883.86943
900.074	983.07978
900.244	290.98566
900.413	1230.7046
900.583	374.21049
900.752	1213.33531
900.922	940.48193
901.091	130.77112
901.261	1772.90429
901.43	520.16409
901.599	2314.38756
901.769	1395.97515
901.938	1048.92789
902.108	1572.00429
902.277	791.03164
902.446	332.99294
902.616	356.64191
902.785	456.43065
902.954	680.82642
903.124	505.69491
903.293	312.98778
903.462	124.42874
903.631	197.01904
903.801	135.42552
903.97	59.59117
904.139	108.88193
904.308	83.84014
904.477	65.00056
904.646	37.42804
904.816	59.3981
904.985	92.9014
905.154	133.68405
