Data from WindowProjectSample_Transmission__94__00094.txt Node

Date: Sat May 03 18:27:25 EDT 2025
User: jessi
Spectrometer: SR400872
Trigger mode: 0
Integration Time (sec): 5.000050E-1
Scans to average: 10
Electric dark correction enabled: true
Nonlinearity correction enabled: true
Boxcar width: 0
XAxis mode: Wavelengths
Number of Pixels in Spectrum: 3648
>>>>>Begin Spectral Data<<<<<
184.909	-5450.51235
185.132	11945.76011
185.355	-13187.02376
185.578	82208.12862
185.801	-1129.46972
186.024	6203.72685
186.247	-8897.85293
186.47	-6819.18036
186.693	886.25253
186.916	-1084.27141
187.139	31243.8405
187.362	13201.28324
187.585	-3253.9665
187.808	-4324.74979
188.031	-95.72914
188.254	9755.33462
188.476	-570.32287
188.699	-4926.26857
188.922	553.05305
189.145	5668.291
189.368	2625.78879
189.591	1063.71685
189.813	11512.79721
190.036	-70649.86316
190.259	1829.35753
190.482	2350.0391
190.705	6208.22577
190.927	4780.99969
191.15	3753.48707
191.373	6556.08082
191.595	1488.94991
191.818	2976.95177
192.041	516.01526
192.263	3699.17385
192.486	1151.61409
192.709	8071.13445
192.931	34901.82522
193.154	3308.43002
193.377	2329.33001
193.599	1742.42954
193.822	840.61029
194.044	1730.52351
194.267	1533.39254
194.489	-196.89837
194.712	2994.90082
194.934	7415.60725
195.157	-10812.03944
195.379	1964.8154
195.602	19077.92996
195.824	3910.69808
196.047	1139.38219
196.269	4988.41024
196.492	27882.47332
196.714	2843.39661
196.936	3603.67337
197.159	5632.11852
197.381	3023.20631
197.604	464.21221
197.826	1839.65131
198.048	1143.25943
198.271	3181.76527
198.493	3898.90903
198.715	6237.34966
198.938	612.27957
199.16	1469.84401
199.382	4868.61582
199.604	-29253.76411
199.827	2675.59083
200.049	1140.12217
200.271	2390.35837
200.493	8024.28622
200.715	3208.21906
200.938	70309.96911
201.16	1864.79224
201.382	2542.79368
201.604	1991.58904
201.826	5769.7595
202.048	1245.60761
202.27	4750.66973
202.492	1773.37241
202.715	1486.59639
202.937	-31020.95127
203.159	5387.89538
203.381	2148.85181
203.603	8677.12024
203.825	1528.80281
204.047	1753.40847
204.269	2329.80964
204.491	1871.20821
204.713	1442.02534
204.935	2057.62607
205.156	1311.59103
205.378	2138.89569
205.6	1491.4035
205.822	8195.00252
206.044	1019.62213
206.266	1212.35046
206.488	2322.99233
206.71	5029.4477
206.932	1759.11686
207.153	4934.96116
207.375	1167.11104
207.597	4550.68289
207.819	1381.7425
208.041	3375.35663
208.262	1041.3933
208.484	3662.66232
208.706	1165.18659
208.927	2518.37408
209.149	1600.97753
209.371	2258.44933
209.593	311.83805
209.814	5683.1498
210.036	15735.47841
210.258	847.029
210.479	1473.65379
210.701	2255.43575
210.922	2258.55527
211.144	1484.47177
211.366	2685.82612
211.587	710.24325
211.809	2781.02899
212.03	2005.63638
212.252	551.48077
212.473	1229.9402
212.695	762.42547
212.916	1512.25727
213.138	586.47607
213.359	3490.77466
213.581	1669.43451
213.802	-3453.81019
214.024	2893.86514
214.245	1261.78925
214.466	616.40335
214.688	1598.62391
214.909	2115.18417
215.131	2742.633
215.352	1173.99018
215.573	3767.66986
215.795	2376.47707
216.016	3038.99378
216.237	792.24276
216.459	2988.81325
216.68	12640.9114
216.901	1424.62521
217.122	1171.45228
217.344	1591.53529
217.565	4051.31064
217.786	2217.11664
218.007	996.08898
218.228	3315.03403
218.45	2116.21398
218.671	759.04497
218.892	1364.05949
219.113	931.75223
219.334	-280.66025
219.555	1442.52641
219.776	1506.72019
219.997	4176.10835
220.219	1962.92141
220.44	804.96342
220.661	544.57805
220.882	1190.18218
221.103	675.48967
221.324	811.74216
221.545	1217.61457
221.766	1634.87725
221.987	483.8577
222.208	691.97719
222.429	1325.67178
222.65	265.64609
222.87	347.28631
223.091	553.53685
223.312	542.26296
223.533	631.31824
223.754	1885.52789
223.975	1137.1888
224.196	564.52841
224.417	693.04249
224.637	319.01906
224.858	54.10098
225.079	479.61511
225.3	512.92953
225.521	1265.55988
225.741	336.62143
225.962	393.38871
226.183	101.46902
226.404	526.8727
226.624	360.58514
226.845	344.3225
227.066	296.27551
227.286	201.68656
227.507	106.25507
227.728	92.53443
227.948	183.46055
228.169	62.13441
228.389	70.12921
228.61	38.90451
228.831	54.35963
229.051	5.03981
229.272	34.13624
229.492	47.3136
229.713	16.10611
229.933	33.67751
230.154	31.29018
230.374	48.68804
230.595	35.29237
230.815	23.5139
231.036	34.8684
231.256	-5.61432
231.477	59.69511
231.697	35.24848
231.917	38.11922
232.138	51.88387
232.358	96.77382
232.579	89.8837
232.799	15.43004
233.019	81.67235
233.24	97.41585
233.46	38.41757
233.68	57.89619
233.901	41.74
234.121	26.8476
234.341	9.45522
234.561	-1.19546
234.782	18.88428
235.002	64.55332
235.222	-2.80831
235.442	56.21186
235.662	26.46626
235.883	60.37059
236.103	49.43932
236.323	33.22465
236.543	30.32661
236.763	40.20414
236.983	39.25298
237.203	40.18435
237.423	59.14068
237.643	85.30945
237.864	72.36133
238.084	22.27414
238.304	24.66562
238.524	43.56157
238.744	40.22384
238.964	66.82738
239.184	60.05227
239.404	61.37208
239.624	34.66019
239.843	57.12657
240.063	35.87469
240.283	24.19045
240.503	26.21419
240.723	24.65854
240.943	15.39124
241.163	18.55772
241.383	14.57029
241.603	7.46594
241.822	9.86209
242.042	6.76363
242.262	9.25014
242.482	9.78557
242.702	11.00168
242.921	4.19131
243.141	7.85438
243.361	7.48604
243.581	10.20313
243.8	8.87413
244.02	6.1294
244.24	10.1269
244.459	9.72432
244.679	19.76278
244.899	12.80615
245.118	14.62955
245.338	13.20427
245.558	15.36854
245.777	8.88634
245.997	10.15826
246.216	11.16719
246.436	6.62748
246.655	5.18304
246.875	3.87628
247.094	6.76002
247.314	2.43538
247.533	4.03849
247.753	4.79397
247.972	3.91497
248.192	1.28331
248.411	2.43007
248.631	4.38149
248.85	5.06299
249.07	4.29409
249.289	7.14642
249.508	5.27561
249.728	8.33064
249.947	8.73237
250.166	9.34247
250.386	4.85853
250.605	6.98711
250.824	11.63119
251.044	8.3691
251.263	25.62533
251.482	15.7422
251.701	12.72862
251.921	0.41775
252.14	3.93942
252.359	5.05019
252.578	11.47605
252.798	3.67911
253.017	9.47328
253.236	5.35462
253.455	6.831
253.674	12.32633
253.893	6.39829
254.112	8.55649
254.331	12.66923
254.551	11.43465
254.77	5.54066
254.989	14.85729
255.208	11.64071
255.427	15.79014
255.646	12.80823
255.865	23.31975
256.084	9.50766
256.303	11.27756
256.522	14.91895
256.741	4.50398
256.96	3.39583
257.179	9.21989
257.397	12.12264
257.616	6.81267
257.835	7.89196
258.054	16.42059
258.273	11.39217
258.492	11.92714
258.711	7.201
258.93	3.46807
259.148	4.6849
259.367	5.28932
259.586	6.17021
259.805	2.99754
260.023	5.43836
260.242	4.22718
260.461	2.99031
260.68	1.74512
260.898	4.96437
261.117	1.75881
261.336	1.11796
261.554	4.10922
261.773	4.13662
261.992	0.77156
262.21	3.96981
262.429	4.46048
262.648	8.10498
262.866	8.711
263.085	6.87001
263.303	5.69984
263.522	9.87587
263.74	9.88368
263.959	16.45463
264.178	8.32705
264.396	8.01504
264.615	5.48162
264.833	11.98139
265.051	10.45162
265.27	11.32159
265.488	12.03757
265.707	7.50841
265.925	11.97675
266.144	5.42217
266.362	6.75333
266.58	6.26319
266.799	5.6336
267.017	6.86532
267.235	5.94105
267.454	3.71816
267.672	2.18742
267.89	4.94577
268.109	5.17107
268.327	5.37461
268.545	1.22459
268.763	4.5239
268.982	2.34977
269.2	5.40318
269.418	3.50337
269.636	2.56674
269.854	5.14571
270.073	4.10551
270.291	2.18077
270.509	2.43279
270.727	4.90928
270.945	8.41137
271.163	8.06744
271.381	1.98784
271.599	3.52148
271.817	6.04807
272.036	2.04759
272.254	3.78348
272.472	2.88838
272.69	2.86541
272.908	2.97428
273.126	4.58129
273.344	5.92796
273.562	2.38652
273.779	2.82847
273.997	4.99324
274.215	4.63819
274.433	3.31208
274.651	5.07198
274.869	5.12811
275.087	3.22832
275.305	4.7696
275.523	2.98008
275.74	3.49734
275.958	6.20762
276.176	9.02044
276.394	3.12301
276.612	3.80345
276.829	3.85912
277.047	3.35181
277.265	3.21559
277.483	4.01814
277.7	5.08821
277.918	3.87536
278.136	6.89064
278.353	3.51829
278.571	2.00608
278.789	5.45331
279.006	1.35417
279.224	3.50582
279.442	5.52399
279.659	3.8981
279.877	2.84515
280.094	5.97787
280.312	1.14832
280.529	3.93479
280.747	1.45883
280.964	3.04851
281.182	6.55525
281.399	3.39488
281.617	3.95718
281.834	3.09737
282.052	2.72188
282.269	3.56712
282.487	2.87362
282.704	2.51396
282.921	2.43382
283.139	3.73552
283.356	4.69703
283.574	4.17976
283.791	2.3215
284.008	5.7946
284.226	2.94872
284.443	3.72683
284.66	4.99274
284.877	3.93378
285.095	2.47002
285.312	1.98078
285.529	1.27937
285.746	1.02033
285.964	2.49684
286.181	1.60654
286.398	2.26154
286.615	3.17907
286.832	3.01196
287.05	0.73667
287.267	2.2705
287.484	2.12565
287.701	3.16781
287.918	3.06853
288.135	3.04593
288.352	1.24895
288.569	1.78576
288.786	2.8195
289.003	2.1289
289.22	3.3
289.437	1.76815
289.654	3.28001
289.871	3.41437
290.088	3.38497
290.305	2.58075
290.522	2.20254
290.739	2.40216
290.956	3.57397
291.173	4.23821
291.39	3.93598
291.607	2.68996
291.824	2.27561
292.04	1.54989
292.257	3.16679
292.474	3.80263
292.691	2.38698
292.908	1.30486
293.125	1.87673
293.341	1.40129
293.558	5.51674
293.775	2.50241
293.992	2.63606
294.208	0.94262
294.425	1.68315
294.642	2.09263
294.858	3.21108
295.075	0.88011
295.292	2.59397
295.508	2.88108
295.725	4.03629
295.942	2.03676
296.158	1.41986
296.375	2.29847
296.591	1.87668
296.808	1.9038
297.024	2.13242
297.241	2.44869
297.458	2.5671
297.674	0.29173
297.891	2.15983
298.107	1.59635
298.323	1.29536
298.54	3.02096
298.756	1.51654
298.973	0.68994
299.189	3.20248
299.406	1.43187
299.622	3.36609
299.838	3.22344
300.055	2.84446
300.271	0.79417
300.487	1.25507
300.704	1.45865
300.92	0.85705
301.136	4.43717
301.353	3.40699
301.569	2.41418
301.785	2.49049
302.001	3.05836
302.218	2.66877
302.434	2.76652
302.65	1.03363
302.866	1.76472
303.083	4.53509
303.299	4.37763
303.515	2.3048
303.731	2.60103
303.947	0.94217
304.163	1.56318
304.379	2.45336
304.595	2.86642
304.812	1.49992
305.028	1.3835
305.244	1.82631
305.46	3.10264
305.676	3.20192
305.892	3.80649
306.108	2.69703
306.324	1.84143
306.54	4.28269
306.756	2.90534
306.972	2.80244
307.187	2.12466
307.403	3.8673
307.619	1.86521
307.835	3.30583
308.051	3.6943
308.267	1.11051
308.483	3.30084
308.699	2.95609
308.914	2.51516
309.13	2.29809
309.346	0.87578
309.562	1.30357
309.778	0.79377
309.993	2.77039
310.209	2.11152
310.425	1.14195
310.641	1.95868
310.856	1.29254
311.072	1.17291
311.288	2.22894
311.503	2.37145
311.719	0.59349
311.935	0.52918
312.15	2.51853
312.366	2.25491
312.581	2.68026
312.797	2.3725
313.013	3.00212
313.228	1.6259
313.444	2.25609
313.659	1.51921
313.875	2.6382
314.09	2.22921
314.306	3.66506
314.521	3.01766
314.737	2.96078
314.952	2.44956
315.168	2.16912
315.383	2.80817
315.599	2.01199
315.814	2.02599
316.029	3.12789
316.245	1.08114
316.46	0.75416
316.675	3.7328
316.891	4.22418
317.106	5.26013
317.321	2.93916
317.537	2.95688
317.752	3.1498
317.967	3.33591
318.183	1.69824
318.398	1.98023
318.613	3.34996
318.828	3.77685
319.043	3.25595
319.259	2.21055
319.474	2.59136
319.689	3.47702
319.904	0.82938
320.119	3.08418
320.334	2.79405
320.549	2.37537
320.765	3.75523
320.98	2.47277
321.195	3.26478
321.41	2.2632
321.625	3.21311
321.84	4.19743
322.055	4.24314
322.27	1.6907
322.485	1.46817
322.7	2.67591
322.915	3.53151
323.13	1.68453
323.345	3.85501
323.56	3.14168
323.775	2.95162
323.989	2.95251
324.204	2.72483
324.419	3.34549
324.634	1.17233
324.849	2.24603
325.064	4.61535
325.279	3.31606
325.493	2.84427
325.708	3.4948
325.923	1.68894
326.138	1.88153
326.352	4.14196
326.567	3.28107
326.782	1.98717
326.997	1.6415
327.211	3.13661
327.426	2.74712
327.641	2.12409
327.855	0.97071
328.07	2.86395
328.285	4.14589
328.499	2.06083
328.714	2.78469
328.928	3.41573
329.143	2.44916
329.358	3.67789
329.572	3.65131
329.787	3.76874
330.001	4.87956
330.216	1.30325
330.43	4.34376
330.645	4.13405
330.859	3.32863
331.074	1.77805
331.288	2.7772
331.503	3.89503
331.717	1.46448
331.931	2.38719
332.146	2.73303
332.36	4.66419
332.575	2.98159
332.789	2.70729
333.003	2.59826
333.218	3.20111
333.432	2.41768
333.646	3.24345
333.86	4.15688
334.075	4.42492
334.289	2.01896
334.503	1.4968
334.717	3.09658
334.932	2.92848
335.146	3.5595
335.36	2.07604
335.574	3.20902
335.788	2.99531
336.003	3.5584
336.217	3.17168
336.431	2.79975
336.645	2.01501
336.859	1.59402
337.073	2.41105
337.287	2.73547
337.501	1.5174
337.715	2.92909
337.929	3.27069
338.143	1.43127
338.357	2.55564
338.571	1.82327
338.785	3.1042
338.999	2.06619
339.213	2.07992
339.427	1.26004
339.641	3.74833
339.855	2.1505
340.069	2.08323
340.283	3.47594
340.497	3.79153
340.711	2.9586
340.924	2.41752
341.138	1.40838
341.352	1.39419
341.566	2.70314
341.78	0.96867
341.993	1.99858
342.207	1.59961
342.421	2.81613
342.635	2.50862
342.848	1.98337
343.062	0.45615
343.276	1.78618
343.49	4.29721
343.703	1.77197
343.917	3.28167
344.131	3.42128
344.344	1.95312
344.558	1.99239
344.771	1.49671
344.985	3.45924
345.199	3.894
345.412	2.69954
345.626	2.81448
345.839	1.01856
346.053	1.52442
346.266	1.53498
346.48	3.03682
346.693	2.71655
346.907	2.91249
347.12	1.59089
347.334	2.64066
347.547	2.76902
347.76	2.21605
347.974	3.5519
348.187	2.83048
348.401	2.11068
348.614	1.62542
348.827	2.10183
349.041	3.03036
349.254	0.80051
349.467	2.46915
349.681	1.49091
349.894	1.90763
350.107	3.58148
350.32	4.10791
350.534	0.96938
350.747	1.93197
350.96	1.69863
351.173	1.66828
351.386	1.89523
351.6	1.84248
351.813	1.90642
352.026	2.29591
352.239	1.38239
352.452	2.22952
352.665	3.26182
352.878	2.09117
353.092	4.1467
353.305	2.91866
353.518	2.62165
353.731	1.56515
353.944	3.41173
354.157	1.87493
354.37	1.65901
354.583	1.40695
354.796	1.00646
355.009	3.28309
355.222	2.3559
355.435	2.51271
355.647	3.23215
355.86	1.56733
356.073	2.14253
356.286	1.96476
356.499	2.93021
356.712	2.65301
356.925	2.64066
357.138	3.05556
357.35	1.4334
357.563	1.91096
357.776	2.32716
357.989	2.02984
358.201	2.71023
358.414	2.3451
358.627	3.20943
358.84	2.06219
359.052	1.37355
359.265	1.37571
359.478	2.98005
359.69	0.1099
359.903	2.81815
360.116	2.98355
360.328	0.82596
360.541	2.83595
360.753	1.4729
360.966	1.8292
361.179	1.81984
361.391	1.76653
361.604	1.34483
361.816	1.69349
362.029	1.58434
362.241	1.38142
362.454	1.64754
362.666	1.39359
362.879	2.16777
363.091	1.8127
363.304	1.42826
363.516	1.93727
363.728	1.0626
363.941	2.33583
364.153	1.82641
364.366	0.47793
364.578	1.19128
364.79	2.46439
365.003	2.05512
365.215	1.60196
365.427	2.45834
365.639	2.9525
365.852	2.24495
366.064	3.45583
366.276	1.81533
366.488	2.4768
366.701	1.77812
366.913	1.87928
367.125	1.98457
367.337	1.6097
367.549	1.54964
367.762	2.20964
367.974	2.05445
368.186	1.54545
368.398	2.98947
368.61	2.50444
368.822	2.59477
369.034	2.07027
369.246	2.69939
369.458	4.1086
369.67	1.29749
369.882	3.55128
370.094	0.55915
370.306	3.24753
370.518	1.98337
370.73	1.60974
370.942	1.56382
371.154	1.85984
371.366	1.57474
371.578	2.44642
371.79	1.51556
372.002	2.94365
372.214	3.58108
372.425	2.23596
372.637	3.101
372.849	2.42262
373.061	0.46329
373.273	2.52464
373.484	2.51976
373.696	2.79526
373.908	0.3502
374.12	2.85972
374.331	2.47695
374.543	1.40839
374.755	1.39455
374.967	2.12529
375.178	2.68311
375.39	1.92758
375.602	2.11233
375.813	1.0509
376.025	1.22956
376.236	2.1766
376.448	2.13586
376.66	1.7281
376.871	1.71062
377.083	2.71772
377.294	3.04776
377.506	1.70443
377.717	2.98787
377.929	2.16859
378.14	1.599
378.352	2.44238
378.563	2.47734
378.775	3.01994
378.986	1.42305
379.197	2.14883
379.409	1.59368
379.62	2.60941
379.832	2.26199
380.043	1.93059
380.254	2.2843
380.466	1.11135
380.677	4.1729
380.888	3.78742
381.1	3.97631
381.311	3.98322
381.522	2.14333
381.733	4.4053
381.945	2.03188
382.156	2.17808
382.367	1.73859
382.578	4.33402
382.789	4.29443
383.001	1.80822
383.212	3.15319
383.423	3.28078
383.634	3.01984
383.845	2.60643
384.056	1.84738
384.267	2.06711
384.478	2.00456
384.69	1.23937
384.901	2.68181
385.112	2.41081
385.323	3.31815
385.534	2.39111
385.745	2.37739
385.956	2.43949
386.167	1.32017
386.378	2.49376
386.588	1.24982
386.799	1.60643
387.01	0.94645
387.221	2.79333
387.432	2.0529
387.643	3.61733
387.854	1.99011
388.065	1.86737
388.275	1.98185
388.486	1.74636
388.697	2.06694
388.908	1.84836
389.119	3.02766
389.329	3.44959
389.54	2.19533
389.751	2.45109
389.962	2.9673
390.172	2.20735
390.383	1.71702
390.594	1.56019
390.804	1.60419
391.015	1.75956
391.226	2.12491
391.436	2.54935
391.647	2.31431
391.858	2.5533
392.068	0.98987
392.279	1.31274
392.489	2.12356
392.7	2.88086
392.91	1.30022
393.121	1.52838
393.331	2.38906
393.542	2.88368
393.752	2.54044
393.963	2.16318
394.173	2.1479
394.384	2.5141
394.594	2.06783
394.804	1.3363
395.015	2.16476
395.225	2.54055
395.436	1.28552
395.646	2.45253
395.856	1.61008
396.067	1.16218
396.277	2.81328
396.487	2.42062
396.697	2.14258
396.908	2.73212
397.118	2.63359
397.328	2.23298
397.538	2.88077
397.749	1.57553
397.959	2.84847
398.169	2.60339
398.379	1.2052
398.589	2.60884
398.8	2.20996
399.01	2.11527
399.22	2.00983
399.43	3.74304
399.64	1.85258
399.85	2.50923
400.06	2.14291
400.27	1.77465
400.48	2.14541
400.69	3.22221
400.9	1.92054
401.11	1.71775
401.32	2.70942
401.53	1.73722
401.74	3.47853
401.95	2.74459
402.16	1.61234
402.37	2.5025
402.58	1.6269
402.79	2.74008
403	2.77711
403.209	1.79098
403.419	2.65249
403.629	1.89414
403.839	2.6813
404.049	2.70174
404.258	1.59836
404.468	1.65022
404.678	2.53391
404.888	2.66417
405.097	1.6705
405.307	1.9856
405.517	2.56091
405.727	2.32104
405.936	2.00462
406.146	2.29683
406.356	3.06976
406.565	2.17071
406.775	1.80707
406.984	1.78846
407.194	3.42027
407.404	2.30605
407.613	2.43903
407.823	2.69413
408.032	2.96689
408.242	2.93167
408.451	1.86744
408.661	2.10492
408.87	3.3728
409.08	1.92317
409.289	2.53357
409.499	2.32234
409.708	2.299
409.918	0.84549
410.127	2.31968
410.336	3.3432
410.546	2.64265
410.755	2.07606
410.964	1.91219
411.174	1.61459
411.383	2.60287
411.592	2.63043
411.802	1.54593
412.011	2.8582
412.22	2.31487
412.429	3.26647
412.639	3.10058
412.848	3.16923
413.057	3.38329
413.266	3.02205
413.475	2.29555
413.685	2.79685
413.894	2.77179
414.103	3.0722
414.312	2.77007
414.521	2.25011
414.73	2.41449
414.939	3.56577
415.148	2.70948
415.357	2.53118
415.566	2.08006
415.776	2.15852
415.985	1.98476
416.194	2.80441
416.403	3.29963
416.611	1.4856
416.82	1.79487
417.029	2.30021
417.238	1.87917
417.447	1.62582
417.656	1.98387
417.865	1.85698
418.074	2.07141
418.283	2.37289
418.492	3.04765
418.7	2.91583
418.909	3.77226
419.118	2.74734
419.327	3.04685
419.536	2.80685
419.744	2.35621
419.953	3.66547
420.162	3.65361
420.371	2.5546
420.579	2.47238
420.788	3.63543
420.997	3.65037
421.205	3.71964
421.414	3.37787
421.623	3.36483
421.831	2.94497
422.04	3.73239
422.249	2.83813
422.457	3.46982
422.666	2.8926
422.874	3.84121
423.083	3.85937
423.291	3.75942
423.5	3.42801
423.708	3.66555
423.917	4.13903
424.125	3.54553
424.334	3.257
424.542	5.23832
424.751	4.33814
424.959	4.05314
425.167	4.5477
425.376	4.25345
425.584	3.50457
425.793	3.77697
426.001	2.76639
426.209	3.63568
426.418	2.5772
426.626	2.68207
426.834	2.30085
427.042	2.70389
427.251	2.27541
427.459	3.12315
427.667	2.62417
427.875	1.90254
428.084	2.22821
428.292	3.13211
428.5	2.86267
428.708	2.01445
428.916	1.97533
429.124	2.64887
429.333	2.32372
429.541	2.36967
429.749	2.5801
429.957	2.39166
430.165	3.78199
430.373	1.71846
430.581	2.64998
430.789	3.27707
430.997	2.20308
431.205	2.20381
431.413	2.5604
431.621	2.28015
431.829	2.97031
432.037	2.24028
432.245	2.82407
432.453	2.79792
432.661	2.43058
432.869	3.86706
433.076	2.24287
433.284	2.74331
433.492	3.26256
433.7	3.70439
433.908	2.69233
434.116	2.99471
434.323	2.92204
434.531	2.86602
434.739	3.1065
434.947	3.21861
435.154	3.12686
435.362	2.77572
435.57	2.47861
435.778	2.37693
435.985	2.87168
436.193	2.39383
436.401	3.35329
436.608	2.70281
436.816	2.4394
437.023	3.63463
437.231	3.60038
437.439	2.83049
437.646	2.99742
437.854	2.90457
438.061	3.0865
438.269	2.76827
438.476	3.18779
438.684	2.99018
438.891	2.85591
439.099	2.59429
439.306	2.28065
439.514	2.52926
439.721	3.49925
439.929	2.95741
440.136	3.77234
440.343	3.66534
440.551	3.36972
440.758	5.07757
440.965	4.01037
441.173	3.55201
441.38	3.11361
441.587	3.62184
441.795	3.15848
442.002	3.51758
442.209	3.37682
442.416	3.50844
442.624	3.35248
442.831	3.16484
443.038	2.61079
443.245	2.39423
443.452	2.56507
443.66	3.34956
443.867	2.48352
444.074	2.61304
444.281	2.54157
444.488	2.94417
444.695	3.02296
444.902	2.99365
445.109	3.86651
445.316	3.25292
445.523	3.3858
445.73	3.11232
445.937	3.96994
446.144	4.33592
446.351	4.41874
446.558	3.51434
446.765	4.84852
446.972	4.83154
447.179	4.03469
447.386	5.05437
447.593	3.5973
447.8	4.70858
448.007	3.56034
448.214	3.59711
448.42	3.10401
448.627	3.98655
448.834	3.12012
449.041	3.00974
449.248	2.91406
449.454	3.52845
449.661	3.82344
449.868	2.76443
450.075	2.56833
450.281	1.87289
450.488	2.23323
450.695	2.47214
450.901	2.4609
451.108	2.56124
451.315	3.46014
451.521	2.77945
451.728	3.38873
451.935	2.49161
452.141	2.80793
452.348	2.84843
452.554	2.81813
452.761	2.70811
452.967	3.76614
453.174	2.96785
453.38	3.09194
453.587	2.25129
453.793	2.98474
454	3.41611
454.206	4.12876
454.413	3.63281
454.619	3.15415
454.825	2.53839
455.032	3.30947
455.238	3.43088
455.445	2.30672
455.651	2.97348
455.857	2.02197
456.064	2.7095
456.27	2.79039
456.476	2.84683
456.682	2.26151
456.889	3.25522
457.095	3.31953
457.301	4.35492
457.507	2.95735
457.714	3.01411
457.92	2.8029
458.126	2.56283
458.332	2.84909
458.538	2.80411
458.744	2.98687
458.951	3.24129
459.157	4.75121
459.363	3.90115
459.569	3.87447
459.775	4.62893
459.981	3.64663
460.187	4.19056
460.393	4.66966
460.599	4.99275
460.805	4.20197
461.011	3.90156
461.217	4.32949
461.423	4.04224
461.629	3.16063
461.835	3.43809
462.041	2.89998
462.247	4.00875
462.453	2.96715
462.658	3.06742
462.864	3.51526
463.07	3.27679
463.276	3.24789
463.482	3.30788
463.688	3.90933
463.893	2.78203
464.099	3.0232
464.305	4.05362
464.511	2.86781
464.716	3.16626
464.922	3.62073
465.128	2.7056
465.333	4.26404
465.539	3.4584
465.745	3.00955
465.95	3.37598
466.156	4.71867
466.362	3.85085
466.567	3.04996
466.773	3.04665
466.978	4.20548
467.184	2.63773
467.389	2.06671
467.595	3.56515
467.8	2.63857
468.006	3.92935
468.211	3.85787
468.417	2.67127
468.622	3.45405
468.828	3.61355
469.033	3.32674
469.239	4.93721
469.444	2.98653
469.649	3.86831
469.855	3.16612
470.06	3.32816
470.266	2.69552
470.471	3.6009
470.676	3.45278
470.881	2.36957
471.087	4.07746
471.292	4.38353
471.497	2.64291
471.703	3.19649
471.908	2.97459
472.113	3.37969
472.318	3.76112
472.523	2.62078
472.729	3.46675
472.934	3.58709
473.139	3.06022
473.344	3.73873
473.549	4.01725
473.754	2.93081
473.959	4.49187
474.164	3.00268
474.369	3.24111
474.575	3.87046
474.78	3.45316
474.985	2.99296
475.19	2.29488
475.395	2.92806
475.6	3.32159
475.804	4.13125
476.009	3.24202
476.214	3.3836
476.419	3.03757
476.624	2.35433
476.829	2.91244
477.034	3.67591
477.239	2.83763
477.444	3.44479
477.648	3.60355
477.853	3.6142
478.058	3.1789
478.263	2.86137
478.468	2.68983
478.672	2.77829
478.877	4.08191
479.082	4.24189
479.287	3.57271
479.491	3.35426
479.696	2.62109
479.901	3.81247
480.105	3.75168
480.31	2.98087
480.515	3.17597
480.719	4.6345
480.924	3.10079
481.128	2.97919
481.333	3.7874
481.538	3.99116
481.742	3.86047
481.947	4.47686
482.151	4.97206
482.356	4.88292
482.56	6.09919
482.765	6.49278
482.969	7.88046
483.174	9.01929
483.378	10.7939
483.582	10.76978
483.787	11.94494
483.991	12.05175
484.196	12.27248
484.4	11.96931
484.604	12.45112
484.809	10.89817
485.013	10.73933
485.217	9.42959
485.422	8.4312
485.626	7.70225
485.83	7.16804
486.034	6.87194
486.239	6.99598
486.443	7.11754
486.647	6.9827
486.851	7.97288
487.055	8.693
487.26	8.08237
487.464	8.86098
487.668	8.1991
487.872	8.33128
488.076	8.94726
488.28	8.527
488.484	7.81134
488.688	7.62985
488.892	7.63113
489.096	7.21372
489.3	6.44088
489.504	6.10495
489.708	6.1327
489.912	6.0062
490.116	5.66117
490.32	5.04511
490.524	5.96144
490.728	6.31978
490.932	6.33578
491.136	6.52351
491.34	7.4554
491.544	7.83915
491.748	7.46182
491.951	7.51622
492.155	7.16517
492.359	7.44162
492.563	6.24841
492.767	5.98669
492.97	5.61538
493.174	4.85696
493.378	4.56742
493.582	3.83777
493.785	3.95119
493.989	4.00315
494.193	3.77054
494.396	3.39151
494.6	3.88932
494.804	3.4467
495.007	3.09344
495.211	3.12066
495.414	3.38472
495.618	3.68461
495.822	4.29553
496.025	3.72275
496.229	4.3515
496.432	3.50798
496.636	4.01491
496.839	3.99265
497.043	5.07909
497.246	4.21228
497.45	3.89142
497.653	4.03413
497.856	4.15605
498.06	3.36648
498.263	3.70677
498.467	3.47068
498.67	4.20492
498.873	3.9065
499.077	3.37608
499.28	3.31808
499.483	3.68519
499.686	3.97855
499.89	3.75893
500.093	3.90302
500.296	3.14918
500.499	4.37335
500.703	3.50779
500.906	3.57805
501.109	4.57478
501.312	3.60187
501.515	3.41519
501.719	3.80142
501.922	4.24051
502.125	3.79181
502.328	3.58205
502.531	3.02303
502.734	3.51628
502.937	2.59544
503.14	3.56285
503.343	3.04012
503.546	3.37095
503.749	3.15699
503.952	3.794
504.155	3.03904
504.358	3.88408
504.561	3.5859
504.764	2.92143
504.967	3.51837
505.17	3.52758
505.373	4.39874
505.576	3.51784
505.778	3.8961
505.981	3.34874
506.184	4.14599
506.387	2.76201
506.59	4.54069
506.793	4.06908
506.995	3.86237
507.198	2.5857
507.401	3.72565
507.604	3.83786
507.806	3.01678
508.009	3.13095
508.212	3.79185
508.414	3.19254
508.617	3.15724
508.82	3.56382
509.022	4.31327
509.225	3.72054
509.427	2.88273
509.63	4.28322
509.833	3.57918
510.035	3.46
510.238	2.83096
510.44	4.19773
510.643	2.57248
510.845	4.81675
511.048	3.80987
511.25	3.34486
511.453	3.51001
511.655	3.83503
511.858	3.31894
512.06	3.86307
512.262	3.61818
512.465	3.99135
512.667	3.27106
512.869	2.9768
513.072	3.76381
513.274	4.05998
513.476	3.92927
513.679	3.99672
513.881	3.03514
514.083	4.48562
514.286	3.19185
514.488	3.30126
514.69	3.2411
514.892	2.82741
515.094	3.95181
515.297	3.35012
515.499	3.67976
515.701	3.13805
515.903	4.58742
516.105	4.4923
516.307	4.0368
516.509	2.60816
516.711	2.97225
516.913	3.70088
517.116	3.52532
517.318	3.28316
517.52	4.31374
517.722	4.23624
517.924	3.34091
518.126	4.4872
518.328	3.89726
518.529	4.64549
518.731	5.44054
518.933	3.91224
519.135	4.2847
519.337	4.93956
519.539	4.39442
519.741	3.10482
519.943	3.77132
520.145	3.56236
520.346	4.02283
520.548	3.45143
520.75	3.80254
520.952	3.47152
521.153	3.64508
521.355	3.85011
521.557	3.10614
521.759	3.7524
521.96	3.72755
522.162	3.17832
522.364	4.2696
522.565	3.21265
522.767	4.10055
522.969	4.26679
523.17	3.81607
523.372	3.88104
523.573	3.19671
523.775	3.519
523.977	3.08152
524.178	4.45779
524.38	3.21039
524.581	4.14502
524.783	3.72579
524.984	4.46856
525.186	4.35814
525.387	4.87233
525.589	4.62314
525.79	4.53477
525.991	4.18194
526.193	4.97395
526.394	4.10544
526.596	5.03493
526.797	5.17645
526.998	4.78745
527.2	4.62091
527.401	6.21312
527.602	6.35574
527.803	8.13949
528.005	8.28785
528.206	8.97335
528.407	9.55149
528.608	9.24728
528.81	9.4965
529.011	8.87369
529.212	10.00461
529.413	9.05169
529.614	8.55248
529.815	8.34885
530.017	7.56575
530.218	6.71879
530.419	5.89358
530.62	5.75758
530.821	5.52055
531.022	4.39545
531.223	5.32756
531.424	5.27717
531.625	5.18293
531.826	5.07599
532.027	5.13681
532.228	6.17033
532.429	5.79773
532.63	5.85223
532.831	6.31628
533.032	6.47664
533.233	6.98561
533.433	6.75952
533.634	6.98955
533.835	6.33294
534.036	5.92796
534.237	5.96515
534.438	5.38916
534.638	4.53163
534.839	4.54363
535.04	4.85792
535.241	4.2015
535.441	5.31471
535.642	4.64643
535.843	4.08566
536.043	4.26081
536.244	4.42582
536.445	4.56523
536.645	5.47105
536.846	4.94468
537.047	5.56041
537.247	4.32895
537.448	4.48591
537.648	4.3888
537.849	4.11957
538.049	3.82536
538.25	4.06456
538.451	3.92541
538.651	3.27177
538.851	4.01206
539.052	4.34053
539.252	4.14636
539.453	3.73537
539.653	4.01164
539.854	4.17468
540.054	4.42546
540.254	5.52143
540.455	6.09449
540.655	5.54311
540.855	6.55208
541.056	7.19311
541.256	6.78369
541.456	7.91152
541.657	7.07744
541.857	7.97021
542.057	6.44652
542.257	6.23014
542.458	6.98579
542.658	6.89841
542.858	5.32407
543.058	6.11585
543.258	5.54868
543.458	4.40685
543.659	4.0324
543.859	5.02671
544.059	4.79979
544.259	4.19341
544.459	4.64319
544.659	3.738
544.859	4.17235
545.059	3.57573
545.259	4.27258
545.459	3.89048
545.659	4.46107
545.859	3.94869
546.059	4.19652
546.259	3.56465
546.459	3.27703
546.659	3.52804
546.859	4.2599
547.059	4.08975
547.258	4.27666
547.458	3.97513
547.658	3.12344
547.858	3.18279
548.058	4.00198
548.258	3.58189
548.457	3.32822
548.657	5.35653
548.857	3.77979
549.057	4.34652
549.256	4.14684
549.456	3.60099
549.656	2.71276
549.855	5.05518
550.055	3.78029
550.255	5.12203
550.454	4.17596
550.654	4.49564
550.853	4.83354
551.053	4.60194
551.253	4.18351
551.452	4.22573
551.652	3.16342
551.851	2.83044
552.051	3.65331
552.25	3.56624
552.45	3.39209
552.649	3.60694
552.849	3.2765
553.048	3.84454
553.248	4.26178
553.447	3.24294
553.646	4.43179
553.846	4.8427
554.045	4.67809
554.244	3.14353
554.444	5.14094
554.643	3.29746
554.842	5.03249
555.042	5.50321
555.241	3.58002
555.44	3.41459
555.64	4.19034
555.839	5.25178
556.038	4.40779
556.237	3.66445
556.436	4.01183
556.636	4.15095
556.835	3.50424
557.034	5.18603
557.233	4.03176
557.432	3.17045
557.631	4.80772
557.83	3.98503
558.029	3.6525
558.228	3.92219
558.427	3.33412
558.626	4.32341
558.825	3.68868
559.024	4.35433
559.223	5.38562
559.422	4.03533
559.621	4.40142
559.82	2.33756
560.019	4.16677
560.218	3.75759
560.417	2.06488
560.616	3.73199
560.815	6.34461
561.014	2.97574
561.212	4.9408
561.411	4.21427
561.61	2.92856
561.809	3.74448
562.008	4.90696
562.206	3.94295
562.405	4.42061
562.604	3.86811
562.803	4.10443
563.001	3.8981
563.2	2.97641
563.399	4.44958
563.597	3.21763
563.796	4.13215
563.995	3.09537
564.193	4.45277
564.392	3.53047
564.59	5.68469
564.789	2.56638
564.988	3.4821
565.186	4.0285
565.385	3.66024
565.583	3.53219
565.782	3.72178
565.98	3.57596
566.179	3.71916
566.377	2.97011
566.575	3.24962
566.774	4.62321
566.972	4.37142
567.171	5.31497
567.369	4.69347
567.567	3.86672
567.766	4.17002
567.964	2.42682
568.162	4.27456
568.361	4.7565
568.559	3.82797
568.757	4.25037
568.956	4.01564
569.154	3.8638
569.352	4.57129
569.55	3.88877
569.748	3.89473
569.947	3.24665
570.145	3.1987
570.343	3.02829
570.541	4.74149
570.739	2.89577
570.937	3.86748
571.135	4.12574
571.333	5.10924
571.532	4.96478
571.73	3.98833
571.928	4.54211
572.126	4.16151
572.324	3.42741
572.522	4.70997
572.72	5.828
572.918	3.76841
573.116	4.15659
573.313	3.8725
573.511	3.6948
573.709	3.57496
573.907	4.43576
574.105	3.63658
574.303	2.65266
574.501	2.94691
574.699	4.07892
574.896	4.07771
575.094	4.30017
575.292	2.91816
575.49	4.37448
575.688	3.86476
575.885	4.95656
576.083	5.34306
576.281	4.19877
576.478	3.51809
576.676	4.40078
576.874	3.12906
577.071	3.74779
577.269	5.92343
577.467	3.99602
577.664	4.02775
577.862	4.52793
578.059	3.45692
578.257	4.75415
578.455	4.08909
578.652	4.02043
578.85	2.62443
579.047	4.17903
579.245	4.10256
579.442	3.99262
579.64	4.11672
579.837	2.73895
580.034	6.21196
580.232	3.92962
580.429	3.36461
580.627	4.70894
580.824	5.15935
581.021	4.69358
581.219	4.00537
581.416	3.34881
581.613	5.1788
581.811	5.31528
582.008	3.63676
582.205	4.97133
582.402	4.3685
582.6	6.17648
582.797	4.41075
582.994	4.88236
583.191	4.90239
583.388	4.40409
583.586	4.82489
583.783	5.35926
583.98	3.68785
584.177	4.24964
584.374	1.97765
584.571	4.31692
584.768	4.39668
584.965	4.12471
585.162	4.96861
585.359	6.13816
585.556	4.44601
585.753	4.65506
585.95	3.19875
586.147	3.76608
586.344	4.82378
586.541	4.13188
586.738	3.56104
586.935	4.46215
587.132	3.65023
587.329	5.52472
587.526	4.11796
587.722	8.85259
587.919	3.22807
588.116	4.59554
588.313	5.64582
588.51	6.43969
588.706	4.11762
588.903	4.81634
589.1	5.25924
589.297	7.0855
589.493	4.23072
589.69	4.60069
589.887	3.78301
590.083	3.32611
590.28	3.42517
590.477	5.2084
590.673	4.90143
590.87	5.55806
591.067	3.83772
591.263	4.93676
591.46	4.88957
591.656	4.19154
591.853	5.9184
592.049	3.65444
592.246	3.9651
592.442	5.76865
592.639	5.23058
592.835	3.24168
593.032	4.8832
593.228	3.12826
593.425	3.09984
593.621	3.01935
593.817	4.49751
594.014	3.84583
594.21	4.342
594.406	5.27908
594.603	4.58652
594.799	3.85076
594.995	2.29035
595.192	5.37184
595.388	3.92099
595.584	3.71037
595.78	2.92786
595.977	6.15673
596.173	5.82525
596.369	4.07269
596.565	3.39792
596.761	2.77724
596.957	5.12834
597.154	3.39716
597.35	3.67883
597.546	3.31634
597.742	4.47065
597.938	4.31117
598.134	3.45093
598.33	4.29897
598.526	5.69631
598.722	4.78366
598.918	6.10679
599.114	5.05716
599.31	3.68513
599.506	4.5442
599.702	3.85695
599.898	4.86534
600.094	5.34989
600.29	5.49351
600.485	5.34248
600.681	4.39626
600.877	6.21876
601.073	4.47679
601.269	6.40794
601.465	5.91105
601.66	3.72023
601.856	2.91157
602.052	6.05618
602.248	4.11238
602.443	2.47503
602.639	3.11518
602.835	3.56066
603.03	3.47277
603.226	5.00936
603.422	3.46504
603.617	3.81774
603.813	3.78788
604.009	3.47352
604.204	5.01638
604.4	2.62387
604.595	4.72188
604.791	3.1721
604.986	4.24733
605.182	3.29845
605.377	3.80758
605.573	3.55915
605.768	4.20912
605.964	4.69131
606.159	4.89198
606.355	5.40418
606.55	4.08374
606.746	5.37816
606.941	4.44404
607.136	6.60191
607.332	7.48348
607.527	3.20202
607.722	4.99608
607.918	4.42316
608.113	3.65504
608.308	5.02972
608.503	4.87547
608.699	4.69559
608.894	4.73689
609.089	3.50138
609.284	4.37373
609.479	3.61012
609.675	4.87293
609.87	3.99053
610.065	4.73947
610.26	5.08054
610.455	5.09743
610.65	4.11871
610.845	4.45954
611.04	5.45911
611.235	4.22715
611.43	4.03168
611.625	3.22989
611.82	5.95891
612.015	3.74045
612.21	6.48388
612.405	3.15819
612.6	6.83989
612.795	6.5024
612.99	5.45238
613.185	3.86056
613.38	3.87719
613.575	5.35466
613.77	7.79072
613.965	3.13742
614.159	3.82556
614.354	6.42143
614.549	6.24651
614.744	5.6081
614.938	3.90516
615.133	3.39537
615.328	6.1622
615.523	6.44269
615.717	8.3595
615.912	4.38804
616.107	5.054
616.301	4.56933
616.496	4.09631
616.691	7.10274
616.885	5.66165
617.08	7.8391
617.274	6.66594
617.469	7.56996
617.664	5.85056
617.858	4.30091
618.053	5.02577
618.247	4.86104
618.442	2.53572
618.636	6.63065
618.831	4.45946
619.025	4.48173
619.219	8.28185
619.414	1.04952
619.608	5.23337
619.803	3.98904
619.997	7.40419
620.191	6.57519
620.386	5.8068
620.58	5.43271
620.774	3.05702
620.969	3.27303
621.163	5.39999
621.357	3.43942
621.551	4.84508
621.746	5.21061
621.94	5.43535
622.134	9.79119
622.328	7.81986
622.522	3.50067
622.716	6.37359
622.911	6.39212
623.105	6.1838
623.299	5.47737
623.493	9.48075
623.687	4.09984
623.881	4.82573
624.075	6.13484
624.269	6.69281
624.463	3.04146
624.657	3.29753
624.851	6.12689
625.045	6.35813
625.239	6.18293
625.433	4.0221
625.627	7.03167
625.821	4.46781
626.015	4.036
626.209	5.01976
626.403	2.75458
626.596	5.45959
626.79	5.76046
626.984	3.3524
627.178	5.51165
627.372	5.50979
627.565	6.02792
627.759	2.81438
627.953	3.43833
628.147	5.4728
628.34	5.82733
628.534	7.46096
628.728	4.73496
628.921	6.52351
629.115	6.15673
629.309	6.42778
629.502	6.65005
629.696	5.67422
629.89	5.01755
630.083	5.52757
630.277	5.83147
630.47	7.84135
630.664	5.17203
630.857	3.48845
631.051	6.85645
631.244	6.9105
631.438	6.70322
631.631	4.50616
631.825	7.34653
632.018	6.2562
632.212	8.27097
632.405	7.10921
632.598	4.57933
632.792	5.93807
632.985	2.48503
633.178	4.7027
633.372	5.30799
633.565	5.33385
633.758	7.2032
633.952	4.3053
634.145	4.72774
634.338	5.54868
634.531	5.11819
634.724	4.46986
634.918	5.5204
635.111	5.29379
635.304	4.67259
635.497	8.34191
635.69	6.08576
635.883	7.21874
636.077	3.93215
636.27	6.19012
636.463	5.84468
636.656	6.30225
636.849	4.78054
637.042	6.12818
637.235	8.13171
637.428	6.55821
637.621	7.21443
637.814	8.0176
638.007	8.4122
638.2	8.1685
638.393	8.97195
638.586	4.02222
638.778	5.17191
638.971	6.35284
639.164	8.46199
639.357	6.74149
639.55	8.31483
639.743	7.32927
639.935	7.34358
640.128	9.44183
640.321	7.28691
640.514	6.3005
640.707	10.7845
640.899	8.05067
641.092	3.90215
641.285	18.13834
641.477	2.89088
641.67	10.11129
641.863	8.65386
642.055	6.80956
642.248	6.65188
642.441	5.5828
642.633	7.39014
642.826	8.44184
643.018	8.92192
643.211	9.83234
643.403	9.70735
643.596	10.34823
643.788	9.74373
643.981	5.88259
644.173	7.99105
644.366	5.96344
644.558	4.01418
644.751	8.03028
644.943	4.32581
645.135	10.08486
645.328	9.83897
645.52	8.60163
645.712	8.42929
645.905	12.56585
646.097	4.91533
646.289	7.33724
646.482	10.36679
646.674	5.77576
646.866	8.79523
647.058	7.76067
647.251	5.27888
647.443	5.71641
647.635	6.49546
647.827	5.15596
648.019	4.95293
648.211	6.91737
648.404	7.1023
648.596	10.05732
648.788	7.49483
648.98	7.31133
649.172	7.83733
649.364	7.54557
649.556	4.02732
649.748	11.35487
649.94	5.56565
650.132	8.30204
650.324	5.42616
650.516	5.70655
650.708	9.4038
650.9	4.49577
651.092	6.21769
651.284	4.4287
651.476	5.29698
651.667	7.83558
651.859	9.46917
652.051	6.91672
652.243	7.15498
652.435	6.10722
652.627	7.69886
652.818	7.76946
653.01	4.15774
653.202	5.40161
653.394	6.69194
653.585	8.19657
653.777	16.03474
653.969	9.64404
654.16	9.44089
654.352	5.40082
654.544	7.37256
654.735	9.43661
654.927	7.73422
655.118	10.59466
655.31	8.71555
655.502	9.37578
655.693	6.09196
655.885	8.35704
656.076	10.33591
656.268	7.63437
656.459	10.10896
656.651	9.84561
656.842	6.70606
657.034	5.83384
657.225	8.78512
657.416	10.10254
657.608	9.89798
657.799	6.98973
657.99	9.31238
658.182	5.60088
658.373	5.98886
658.564	8.44716
658.756	7.04944
658.947	6.799
659.138	5.05825
659.33	6.1086
659.521	5.58471
659.712	6.45111
659.903	6.62692
660.094	5.50456
660.286	4.25514
660.477	10.25445
660.668	8.14736
660.859	7.0835
661.05	4.76919
661.241	8.20013
661.432	8.56
661.623	6.81667
661.814	6.69203
662.006	4.33524
662.197	8.3948
662.388	9.97701
662.579	8.09184
662.77	10.74126
662.96	13.44954
663.151	9.45869
663.342	4.29798
663.533	8.77383
663.724	7.35093
663.915	11.33258
664.106	7.85579
664.297	11.89036
664.488	9.43136
664.678	7.21035
664.869	8.97531
665.06	10.13434
665.251	8.46709
665.442	9.00008
665.632	5.94721
665.823	12.51457
666.014	2.19563
666.204	9.45426
666.395	11.01829
666.586	14.40291
666.776	10.35226
666.967	11.95702
667.158	8.2596
667.348	12.09667
667.539	6.11213
667.729	10.12607
667.92	6.24869
668.111	10.94945
668.301	10.2861
668.492	7.31657
668.682	8.31817
668.873	7.86003
669.063	5.63323
669.253	8.44224
669.444	10.66737
669.634	8.15677
669.825	12.39339
670.015	10.35247
670.206	6.86066
670.396	13.21653
670.586	8.11908
670.777	9.70312
670.967	3.88552
671.157	8.46336
671.347	7.3261
671.538	11.9634
671.728	9.79218
671.918	13.43543
672.108	11.08877
672.299	8.69527
672.489	9.59461
672.679	7.49082
672.869	10.86134
673.059	13.2191
673.249	10.38381
673.44	6.89566
673.63	8.63085
673.82	10.88383
674.01	6.6008
674.2	9.82158
674.39	16.12206
674.58	10.20552
674.77	9.84817
674.96	9.28531
675.15	19.20689
675.34	11.35523
675.53	9.31542
675.72	7.7805
675.91	5.83634
676.099	13.49324
676.289	14.70631
676.479	11.89319
676.669	8.37761
676.859	10.50719
677.049	6.79862
677.238	9.1232
677.428	13.3658
677.618	9.95196
677.808	12.03841
677.997	10.46
678.187	6.26512
678.377	8.47184
678.567	7.40361
678.756	8.29618
678.946	8.31187
679.136	5.57381
679.325	6.79974
679.515	6.7772
679.704	5.62843
679.894	10.26528
680.084	9.07813
680.273	11.78289
680.463	5.8258
680.652	6.36709
680.842	8.42591
681.031	10.22841
681.221	6.65362
681.41	9.91556
681.6	8.17144
681.789	10.38538
681.978	12.0524
682.168	9.29265
682.357	10.0228
682.547	11.03323
682.736	9.48375
682.925	12.37646
683.115	12.01915
683.304	11.27629
683.493	10.52649
683.682	10.26808
683.872	10.74832
684.061	13.0437
684.25	11.63124
684.439	14.52975
684.629	11.49603
684.818	18.73527
685.007	9.80435
685.196	9.21833
685.385	14.51912
685.574	11.3259
685.763	10.78448
685.952	10.36098
686.142	6.87267
686.331	13.76773
686.52	5.5655
686.709	14.54805
686.898	14.07904
687.087	11.81837
687.276	14.61757
687.465	13.34192
687.654	9.2122
687.842	14.35043
688.031	6.23254
688.22	13.98152
688.409	10.7109
688.598	10.95391
688.787	17.80208
688.976	11.1027
689.165	15.89713
689.353	9.21989
689.542	12.50964
689.731	12.87327
689.92	16.24676
690.108	13.70418
690.297	9.3654
690.486	11.42237
690.675	13.13914
690.863	16.03359
691.052	16.00692
691.241	13.0275
691.429	12.5269
691.618	15.86183
691.806	8.30673
691.995	10.72724
692.184	11.0274
692.372	9.70992
692.561	11.526
692.749	11.41337
692.938	18.57152
693.126	13.74587
693.315	11.35206
693.503	13.4856
693.692	13.9185
693.88	14.44685
694.068	18.29639
694.257	11.06423
694.445	13.02035
694.634	6.13387
694.822	15.41256
695.01	15.70939
695.199	16.59996
695.387	16.5456
695.575	16.29161
695.763	12.37546
695.952	11.54138
696.14	7.14814
696.328	10.6771
696.516	12.83463
696.705	13.16621
696.893	12.76472
697.081	6.57098
697.269	13.86028
697.457	8.67631
697.645	7.61995
697.833	13.71272
698.021	8.26075
698.21	9.07772
698.398	9.99741
698.586	7.22251
698.774	6.63159
698.962	9.4272
699.15	7.37964
699.338	6.01514
699.526	11.39322
699.714	8.36203
699.901	8.30949
700.089	13.0484
700.277	8.28647
700.465	10.28265
700.653	13.17078
700.841	12.84812
701.029	9.16198
701.217	15.12575
701.404	12.20179
701.592	16.49257
701.78	18.18546
701.968	10.68317
702.155	11.31901
702.343	7.61185
702.531	16.87604
702.718	14.31013
702.906	11.93249
703.094	11.08639
703.281	16.28488
703.469	11.67363
703.657	16.61447
703.844	24.04872
704.032	18.16798
704.219	11.3877
704.407	14.4286
704.595	17.54716
704.782	14.15835
704.97	11.57617
705.157	11.32747
705.345	19.26202
705.532	22.57162
705.719	14.03669
705.907	18.18274
706.094	13.43423
706.282	19.56641
706.469	12.68359
706.656	13.39771
706.844	13.19484
707.031	17.45732
707.218	13.68754
707.406	19.6223
707.593	16.82
707.78	16.24596
707.968	13.3741
708.155	10.62127
708.342	16.43088
708.529	15.54611
708.716	14.34663
708.904	19.46542
709.091	16.58497
709.278	9.82728
709.465	20.34623
709.652	20.91683
709.839	19.62993
710.026	15.52497
710.213	8.6523
710.4	15.73863
710.587	17.24763
710.774	18.22399
710.961	18.54369
711.148	14.8467
711.335	18.89125
711.522	14.24414
711.709	15.82348
711.896	22.83073
712.083	17.90479
712.27	11.83589
712.457	15.54569
712.644	9.47512
712.831	23.25912
713.017	15.25829
713.204	18.06083
713.391	12.55495
713.578	20.23357
713.765	20.59806
713.951	17.83734
714.138	27.54058
714.325	17.69552
714.512	15.05869
714.698	12.19946
714.885	21.7019
715.072	16.85752
715.258	15.92799
715.445	13.26721
715.631	21.27641
715.818	5.91961
716.005	13.25343
716.191	17.72178
716.378	14.8789
716.564	19.15877
716.751	12.43084
716.937	14.1639
717.124	20.70052
717.31	13.19762
717.497	22.13785
717.683	13.25391
717.869	26.20588
718.056	14.33447
718.242	18.3682
718.429	16.61759
718.615	11.84837
718.801	16.7346
718.988	20.39689
719.174	19.10525
719.36	16.26188
719.547	21.64893
719.733	17.91635
719.919	18.78554
720.105	20.61752
720.291	16.36311
720.478	18.16438
720.664	16.5944
720.85	14.56579
721.036	30.85022
721.222	23.53143
721.408	17.1654
721.595	26.03087
721.781	25.59362
721.967	22.30495
722.153	24.60964
722.339	21.09017
722.525	20.2415
722.711	13.74108
722.897	11.12955
723.083	16.06207
723.269	23.11367
723.455	29.17552
723.641	31.34969
723.827	19.27381
724.012	19.9975
724.198	16.85259
724.384	24.15713
724.57	19.67401
724.756	11.63635
724.942	8.29244
725.127	23.20197
725.313	25.56979
725.499	25.13371
725.685	27.48688
725.87	21.14939
726.056	13.6571
726.242	25.32598
726.428	11.37206
726.613	22.74218
726.799	16.84755
726.985	13.90521
727.17	11.52054
727.356	26.64983
727.541	14.98906
727.727	18.02658
727.913	22.23292
728.098	17.12876
728.284	22.95199
728.469	12.95578
728.655	15.10147
728.84	23.68915
729.026	22.573
729.211	23.7145
729.397	20.58094
729.582	21.69524
729.767	17.27361
729.953	20.981
730.138	23.84853
730.323	8.15311
730.509	13.63582
730.694	27.15382
730.879	21.01965
731.065	19.4168
731.25	29.99013
731.435	21.88761
731.621	12.37387
731.806	15.81201
731.991	20.60263
732.176	13.58252
732.361	25.21888
732.547	21.67094
732.732	11.07277
732.917	30.73724
733.102	12.83263
733.287	15.08665
733.472	18.99843
733.657	19.4497
733.842	11.6034
734.027	17.15866
734.212	18.48207
734.397	15.28295
734.582	19.25632
734.767	23.42248
734.952	26.4447
735.137	7.25021
735.322	25.8214
735.507	20.88231
735.692	21.10109
735.877	30.11746
736.062	29.3189
736.247	21.6215
736.431	19.45245
736.616	23.69678
736.801	21.16506
736.986	20.42939
737.171	14.87979
737.355	12.48916
737.54	26.04297
737.725	19.42716
737.909	35.0757
738.094	17.54996
738.279	24.66676
738.463	19.58977
738.648	23.92345
738.833	21.45139
739.017	30.35216
739.202	18.02181
739.386	21.06361
739.571	14.91325
739.756	24.54084
739.94	20.73743
740.125	24.97009
740.309	16.67793
740.494	25.00182
740.678	20.98482
740.863	22.99792
741.047	21.48832
741.231	26.89809
741.416	16.42444
741.6	28.69112
741.785	17.23207
741.969	24.54529
742.153	27.61869
742.338	8.99342
742.522	19.92145
742.706	26.61939
742.89	14.51841
743.075	21.56324
743.259	28.76305
743.443	26.40697
743.627	28.67573
743.812	34.63446
743.996	7.44999
744.18	19.2209
744.364	17.62092
744.548	35.60871
744.732	19.05562
744.916	25.43975
745.1	24.38413
745.285	20.49002
745.469	23.90505
745.653	32.21633
745.837	13.82587
746.021	36.48041
746.205	30.43917
746.389	22.36123
746.573	19.75981
746.757	31.50732
746.94	16.93138
747.124	29.03366
747.308	14.34369
747.492	27.02857
747.676	18.05741
747.86	35.91846
748.044	17.1476
748.227	11.28441
748.411	45.93378
748.595	23.08799
748.779	17.15608
748.963	25.59451
749.146	22.88246
749.33	17.12392
749.514	15.3393
749.697	30.10565
749.881	17.49052
750.065	16.51514
750.248	24.08757
750.432	37.52996
750.616	22.81789
750.799	14.15877
750.983	34.55781
751.166	40.1174
751.35	14.36482
751.533	26.19616
751.717	30.49619
751.9	31.46005
752.084	20.05953
752.267	15.65724
752.451	16.99454
752.634	23.28021
752.818	26.58529
753.001	27.6138
753.184	27.56436
753.368	23.8613
753.551	2.92746
753.734	18.74088
753.918	36.0637
754.101	17.94648
754.284	28.71534
754.467	19.80658
754.651	18.07727
754.834	17.10884
755.017	29.34924
755.2	30.24128
755.384	15.9519
755.567	27.14055
755.75	29.39962
755.933	20.99454
756.116	25.76784
756.299	18.06367
756.482	17.29546
756.665	25.42223
756.848	22.81935
757.032	25.86701
757.215	13.71437
757.398	18.80848
757.581	17.55309
757.764	41.81564
757.947	22.26249
758.129	29.8548
758.312	4.23247
758.495	22.25984
758.678	21.96221
758.861	20.24965
759.044	35.79941
759.227	18.21504
759.41	16.60533
759.592	25.99629
759.775	23.14617
759.958	29.72913
760.141	14.17379
760.324	38.44996
760.506	32.19885
760.689	29.56602
760.872	40.44343
761.054	26.55984
761.237	20.64144
761.42	27.70518
761.602	28.83362
761.785	25.82393
761.968	29.58366
762.15	35.88606
762.333	22.02195
762.515	26.51676
762.698	19.68804
762.88	28.90125
763.063	25.74887
763.245	28.45387
763.428	16.45226
763.61	17.21365
763.793	13.8351
763.975	23.64614
764.158	18.73391
764.34	18.34474
764.522	15.12582
764.705	19.17652
764.887	29.75314
765.069	11.55181
765.252	26.36446
765.434	27.38377
765.616	22.64848
765.799	17.86639
765.981	28.27212
766.163	17.03256
766.345	29.20428
766.528	17.45339
766.71	7.65161
766.892	24.67262
767.074	30.26997
767.256	19.7238
767.438	35.3436
767.62	25.26438
767.802	39.98656
767.985	27.70415
768.167	38.08439
768.349	17.6421
768.531	28.12376
768.713	26.78564
768.895	31.3758
769.077	25.14263
769.259	43.13461
769.441	61.88184
769.623	31.6136
769.804	37.11247
769.986	36.1929
770.168	43.29562
770.35	52.23707
770.532	37.46869
770.714	42.5694
770.896	43.52272
771.077	17.79674
771.259	44.18255
771.441	35.56255
771.623	48.75847
771.804	58.37535
771.986	15.9252
772.168	28.99477
772.35	45.99008
772.531	59.43227
772.713	34.29574
772.894	47.86884
773.076	36.17043
773.258	27.58785
773.439	47.49342
773.621	55.87645
773.802	22.28297
773.984	30.51604
774.166	37.97947
774.347	54.02857
774.529	45.30406
774.71	14.77204
774.891	34.03234
775.073	31.28363
775.254	52.10868
775.436	28.80277
775.617	59.09766
775.799	28.84678
775.98	54.326
776.161	55.05315
776.343	53.10093
776.524	33.72355
776.705	33.04752
776.886	17.13792
777.068	40.52266
777.249	65.40928
777.43	60.64013
777.611	25.39203
777.793	32.29631
777.974	54.93626
778.155	31.81974
778.336	27.62958
778.517	61.64019
778.698	27.29249
778.879	14.22495
779.061	8.58885
779.242	42.09391
779.423	41.60336
779.604	28.72321
779.785	35.38928
779.966	39.43927
780.147	47.06762
780.328	49.7315
780.509	70.03077
780.69	46.27306
780.871	27.59688
781.051	17.69809
781.232	38.87207
781.413	36.96273
781.594	31.40617
781.775	30.36821
781.956	27.93915
782.137	14.63837
782.317	28.35691
782.498	39.65832
782.679	38.94312
782.86	37.33051
783.04	27.96911
783.221	40.60033
783.402	60.84891
783.583	36.42489
783.763	46.78156
783.944	30.83497
784.124	18.33372
784.305	57.39807
784.486	42.04764
784.666	35.72211
784.847	17.06721
785.027	69.43629
785.208	27.72646
785.388	30.14069
785.569	30.92692
785.749	31.60518
785.93	28.28252
786.11	19.8421
786.291	43.08177
786.471	36.08388
786.652	45.80261
786.832	35.76199
787.012	42.23925
787.193	22.82513
787.373	37.75711
787.553	30.79858
787.734	39.37472
787.914	30.52981
788.094	42.16646
788.275	40.40963
788.455	32.57414
788.635	23.12567
788.815	39.92548
788.995	23.03775
789.176	19.93774
789.356	27.47649
789.536	33.65526
789.716	42.04052
789.896	25.68792
790.076	29.45586
790.256	40.03642
790.436	11.96264
790.616	26.91218
790.796	37.95807
790.976	30.37235
791.156	27.55537
791.336	42.3058
791.516	39.53626
791.696	33.84413
791.876	18.2479
792.056	37.2864
792.236	46.65589
792.416	44.1906
792.596	39.04201
792.776	42.84021
792.956	43.62192
793.135	53.92479
793.315	22.07766
793.495	50.7833
793.675	43.298
793.854	48.19428
794.034	48.58649
794.214	21.28607
794.394	44.11685
794.573	51.63774
794.753	38.42175
794.933	27.36922
795.112	39.05926
795.292	46.35027
795.472	59.59183
795.651	20.58736
795.831	34.88879
796.01	32.1374
796.19	31.97112
796.369	34.92915
796.549	42.09253
796.728	32.93735
796.908	22.71019
797.087	23.42271
797.267	33.48496
797.446	22.62607
797.626	42.41882
797.805	42.50682
797.984	26.50076
798.164	42.52979
798.343	25.28872
798.522	39.01705
798.702	36.01642
798.881	21.61308
799.06	32.07163
799.239	14.1967
799.419	25.20947
799.598	53.59021
799.777	41.50636
799.956	50.41848
800.136	31.2303
800.315	25.25992
800.494	39.79992
800.673	48.8392
800.852	41.86937
801.031	48.82293
801.21	42.60696
801.389	29.52109
801.568	40.03564
801.747	59.57964
801.926	35.65902
802.105	54.7888
802.284	31.73414
802.463	53.66367
802.642	37.85226
802.821	39.85745
803	53.08354
803.179	47.02264
803.358	51.90903
803.537	31.02934
803.716	40.30318
803.895	28.3643
804.073	34.48117
804.252	29.51615
804.431	43.14497
804.61	35.23357
804.789	48.57127
804.967	32.15641
805.146	28.48521
805.325	58.90838
805.503	44.11591
805.682	19.66461
805.861	67.94052
806.039	52.53253
806.218	27.32497
806.397	40.49534
806.575	38.16814
806.754	41.07925
806.932	23.2702
807.111	57.84929
807.289	46.71068
807.468	36.21003
807.646	50.41602
807.825	41.34701
808.003	38.66106
808.182	46.70112
808.36	39.50088
808.539	26.98187
808.717	55.50664
808.895	27.65794
809.074	41.06677
809.252	34.96846
809.43	45.01544
809.609	51.85396
809.787	62.50943
809.965	34.07924
810.144	36.8387
810.322	32.24515
810.5	44.51974
810.678	32.73685
810.856	64.64745
811.035	52.56015
811.213	45.74887
811.391	53.70657
811.569	39.01324
811.747	78.58217
811.925	52.37713
812.103	26.69255
812.281	33.2896
812.459	63.98573
812.637	63.60169
812.816	53.12182
812.994	65.53157
813.171	55.00254
813.349	46.90636
813.527	55.96381
813.705	57.73354
813.883	69.47997
814.061	53.40466
814.239	63.01818
814.417	68.8831
814.595	45.50031
814.773	41.26459
814.95	44.50954
815.128	45.89364
815.306	37.57459
815.484	38.9827
815.662	28.67168
815.839	26.55501
816.017	29.4746
816.195	58.48573
816.372	36.49928
816.55	47.83978
816.728	61.63732
816.905	37.96822
817.083	63.03274
817.261	39.46885
817.438	71.51122
817.616	66.70928
817.793	32.73651
817.971	51.58318
818.148	48.36157
818.326	60.79014
818.503	45.89901
818.681	57.0984
818.858	33.77409
819.036	38.78392
819.213	44.26962
819.391	31.465
819.568	32.06931
819.745	28.40699
819.923	51.54994
820.1	32.39144
820.277	30.2037
820.455	35.21313
820.632	38.80225
820.809	37.92097
820.986	23.53163
821.164	18.39791
821.341	17.76944
821.518	25.21946
821.695	17.95123
821.872	16.73383
822.05	14.13922
822.227	10.01348
822.404	10.82915
822.581	12.5227
822.758	10.48659
822.935	10.44093
823.112	12.42257
823.289	9.01028
823.466	12.37949
823.643	11.03298
823.82	14.21674
823.997	12.51159
824.174	15.11585
824.351	20.8446
824.528	19.89638
824.705	17.25705
824.882	20.28713
825.059	27.17586
825.236	18.26372
825.412	19.0383
825.589	26.04679
825.766	35.38505
825.943	21.59018
826.12	26.97816
826.296	16.53563
826.473	23.15277
826.65	23.77317
826.827	30.91889
827.003	19.49618
827.18	20.7237
827.357	24.34889
827.533	20.59226
827.71	11.25552
827.887	17.72447
828.063	20.39811
828.24	18.08527
828.416	24.345
828.593	19.0229
828.769	28.51331
828.946	31.20757
829.122	31.17838
829.299	30.74827
829.475	16.9242
829.652	29.97645
829.828	50.24447
830.005	30.42863
830.181	42.0229
830.357	28.57373
830.534	46.2268
830.71	34.93226
830.886	44.98418
831.063	40.38925
831.239	54.13206
831.415	24.27757
831.592	57.158
831.768	36.02235
831.944	29.50417
832.12	57.92057
832.296	52.39253
832.473	48.14073
832.649	33.85534
832.825	45.82714
833.001	27.01493
833.177	42.13724
833.353	38.93277
833.529	20.67783
833.705	30.85689
833.881	23.15119
834.058	21.59311
834.234	22.82443
834.41	22.91037
834.586	17.3809
834.761	22.32846
834.937	24.38062
835.113	25.22125
835.289	21.67132
835.465	26.80969
835.641	21.45182
835.817	26.08267
835.993	45.49673
836.169	21.3774
836.344	34.22489
836.52	39.25701
836.696	40.66535
836.872	29.63998
837.048	78.53206
837.223	32.3504
837.399	64.44622
837.575	51.24635
837.75	50.93737
837.926	65.8212
838.102	104.21867
838.277	77.75951
838.453	98.95703
838.628	98.81663
838.804	34.55833
838.98	94.29928
839.155	51.36514
839.331	65.19185
839.506	50.20578
839.682	49.19278
839.857	62.98587
840.033	71.5085
840.208	33.83781
840.384	15.90224
840.559	35.57038
840.734	54.28631
840.91	78.07336
841.085	46.40654
841.26	47.6736
841.436	41.52093
841.611	38.26433
841.786	59.66599
841.962	76.21833
842.137	51.75929
842.312	25.95581
842.487	40.48135
842.663	36.15882
842.838	40.13284
843.013	142.56623
843.188	72.91808
843.363	57.12237
843.538	120.26296
843.714	131.35379
843.889	120.76612
844.064	126.50808
844.239	108.51807
844.414	138.09747
844.589	90.15571
844.764	143.86998
844.939	140.34893
845.114	170.10519
845.289	158.88272
845.464	176.46713
845.639	144.176
845.814	75.96598
845.989	89.52139
846.163	100.77039
846.338	116.51805
846.513	156.51513
846.688	109.83988
846.863	104.41072
847.038	93.11276
847.212	99.91007
847.387	116.44591
847.562	114.51749
847.737	141.34141
847.911	59.86249
848.086	77.47972
848.261	222.11422
848.435	98.51413
848.61	150.4002
848.785	75.12461
848.959	144.15414
849.134	178.84443
849.308	233.79573
849.483	118.28157
849.658	172.89062
849.832	99.52746
850.007	83.17593
850.181	248.81299
850.356	87.25299
850.53	192.7408
850.705	70.91505
850.879	52.3674
851.053	98.15003
851.228	89.2331
851.402	122.97142
851.577	151.99088
851.751	177.49394
851.925	113.95602
852.099	54.85817
852.274	83.02827
852.448	112.56723
852.622	130.8262
852.797	109.45679
852.971	125.9689
853.145	126.2402
853.319	224.97851
853.493	168.43706
853.668	96.24681
853.842	209.60698
854.016	158.66378
854.19	194.38352
854.364	127.73588
854.538	128.5011
854.712	162.65371
854.886	115.80109
855.06	100.88651
855.234	37.70489
855.408	175.12222
855.582	158.6254
855.756	180.57323
855.93	195.31642
856.104	120.33424
856.278	160.80366
856.452	109.25417
856.626	148.83429
856.8	216.78508
856.973	139.92482
857.147	138.35293
857.321	145.42089
857.495	157.66131
857.669	116.02633
857.842	107.02653
858.016	171.10145
858.19	76.91038
858.364	277.22375
858.537	102.73155
858.711	125.54621
858.885	104.62713
859.058	100.07131
859.232	59.64598
859.405	58.89049
859.579	162.4206
859.753	139.77005
859.926	85.63231
860.1	68.86231
860.273	111.34494
860.447	197.95337
860.62	101.11456
860.794	204.0005
860.967	135.33428
861.141	179.84743
861.314	238.96286
861.487	129.99431
861.661	189.85664
861.834	192.45762
862.008	187.28063
862.181	118.94407
862.354	124.5645
862.528	140.32471
862.701	98.51928
862.874	69.3747
863.047	102.44751
863.221	104.09496
863.394	53.03159
863.567	182.46407
863.74	49.50615
863.913	163.59716
864.087	144.09983
864.26	160.14839
864.433	116.89063
864.606	219.79314
864.779	119.84352
864.952	59.55559
865.125	95.67038
865.298	123.243
865.471	118.22035
865.644	197.5368
865.817	171.38589
865.99	165.41196
866.163	200.44767
866.336	100.79198
866.509	115.77997
866.682	108.0569
866.855	187.51455
867.028	72.90083
867.2	145.17423
867.373	43.75364
867.546	123.25111
867.719	222.11079
867.892	137.55801
868.064	88.91168
868.237	140.32528
868.41	116.88529
868.583	80.6501
868.755	74.09942
868.928	111.51306
869.101	248.5071
869.273	179.20486
869.446	140.54034
869.619	179.87889
869.791	122.08214
869.964	178.11475
870.136	165.26415
870.309	132.73512
870.481	122.54141
870.654	68.99278
870.826	134.17389
870.999	98.24831
871.171	151.59803
871.344	92.29325
871.516	123.29903
871.689	84.07442
871.861	122.78896
872.033	85.4934
872.206	111.70819
872.378	172.32663
872.55	112.24444
872.723	76.25859
872.895	113.95686
873.067	172.50018
873.24	165.57374
873.412	97.35716
873.584	107.56949
873.756	104.97067
873.928	128.33299
874.101	137.9857
874.273	146.37847
874.445	56.52033
874.617	73.78414
874.789	125.14754
874.961	110.36089
875.133	151.27944
875.305	118.8531
875.477	83.43775
875.649	55.70551
875.821	77.62073
875.993	191.25615
876.165	83.76605
876.337	131.4538
876.509	115.36381
876.681	134.40631
876.853	131.91873
877.025	132.71293
877.197	81.9542
877.369	76.00575
877.541	146.84877
877.712	39.76184
877.884	83.98906
878.056	133.76171
878.228	71.27847
878.4	146.42816
878.571	81.81118
878.743	55.39322
878.915	115.96144
879.086	72.94025
879.258	95.27213
879.43	79.76623
879.601	73.37365
879.773	80.56043
879.945	21.26602
880.116	33.38939
880.288	22.02811
880.459	24.24138
880.631	17.95744
880.802	21.31766
880.974	19.6494
881.145	13.30749
881.317	19.19441
881.488	12.91849
881.66	15.21424
881.831	13.98071
882.002	19.90579
882.174	13.63336
882.345	18.62785
882.517	8.07128
882.688	22.01417
882.859	16.9435
883.03	28.25493
883.202	27.86171
883.373	22.79365
883.544	21.95305
883.715	37.67237
883.887	33.0121
884.058	28.45538
884.229	39.91439
884.4	42.98391
884.571	45.8592
884.742	40.32726
884.914	42.06818
885.085	63.90919
885.256	83.94273
885.427	67.88638
885.598	79.68199
885.769	79.62633
885.94	77.25814
886.111	53.31876
886.282	97.76879
886.453	78.0942
886.624	59.43684
886.795	99.13282
886.966	78.96577
887.136	109.35796
887.307	66.23502
887.478	146.82846
887.649	117.57193
887.82	125.44553
887.991	95.95033
888.161	132.15881
888.332	125.51438
888.503	61.42513
888.674	165.18286
888.844	195.57061
889.015	144.14592
889.186	74.8706
889.356	184.73871
889.527	71.98504
889.698	247.43043
889.868	90.22922
890.039	144.76685
890.209	116.72256
890.38	143.21757
890.551	130.94586
890.721	191.13165
890.892	154.21731
891.062	111.11237
891.233	132.76516
891.403	107.68701
891.574	83.60217
891.744	106.23804
891.914	124.33053
892.085	123.33052
892.255	35.75904
892.425	176.87394
892.596	139.28299
892.766	137.35859
892.936	186.78368
893.107	149.13964
893.277	86.86632
893.447	62.11425
893.618	49.0077
893.788	105.05885
893.958	64.012
894.128	54.35325
894.298	65.59937
894.468	87.10427
894.639	38.59109
894.809	24.66317
894.979	43.25237
895.149	52.89563
895.319	39.76263
895.489	55.93053
895.659	74.67433
895.829	48.46396
895.999	48.44048
896.169	38.44554
896.339	45.97564
896.509	92.93295
896.679	97.09812
896.849	107.70577
897.019	133.94032
897.189	107.59259
897.358	96.82549
897.528	146.57088
897.698	43.83009
897.868	127.14257
898.038	220.94589
898.208	225.74408
898.377	64.13058
898.547	210.78197
898.717	284.56738
898.886	130.42598
899.056	225.92082
899.226	301.19353
899.395	188.99934
899.565	273.98829
899.735	175.04511
899.904	251.00464
900.074	229.38431
900.244	101.63377
900.413	369.84185
900.583	76.97768
900.752	170.30454
900.922	275.74458
901.091	22.61264
901.261	229.29836
901.43	206.64047
901.599	215.3313
901.769	497.8133
901.938	266.59011
902.108	237.87947
902.277	298.59963
902.446	103.73012
902.616	106.93483
902.785	125.6506
902.954	243.5586
903.124	155.22253
903.293	130.38193
903.462	66.59551
903.631	105.92455
903.801	82.18155
903.97	39.63575
904.139	66.95181
904.308	54.11791
904.477	44.2753
904.646	26.37972
904.816	36.42565
904.985	56.74717
905.154	84.48768
