Data from WindowProjectSample_Transmission__5__00005__0692131586714037.txt Node

Date: Sat May 03 22:17:36 EDT 2025
User: jessi
Spectrometer: SR400872
Trigger mode: 0
Integration Time (sec): 5.000010E-1
Scans to average: 10
Electric dark correction enabled: true
Nonlinearity correction enabled: true
Boxcar width: 0
XAxis mode: Wavelengths
Number of Pixels in Spectrum: 3648
>>>>>Begin Spectral Data<<<<<
184.909	-6202.03805
185.132	7483.96292
185.355	18168.21161
185.578	8540.23941
185.801	-948.55122
186.024	-2051.85099
186.247	-4733.44211
186.47	-2015.91367
186.693	-84.29361
186.916	-198.86745
187.139	-4168.87888
187.362	-14857.01255
187.585	1975.27531
187.808	-3526.5175
188.031	24.53288
188.254	3358.93508
188.476	-1518.94174
188.699	-39096.5277
188.922	2813.65318
189.145	-7463.31359
189.368	1164.55783
189.591	1109.24115
189.813	1421.64859
190.036	-4142.19475
190.259	2096.8057
190.482	10848.97407
190.705	3417.34893
190.927	13193.08684
191.15	5575.14888
191.373	1763.22477
191.595	5320.41829
191.818	3172.37533
192.041	553.87596
192.263	2709.75624
192.486	-1930.81606
192.709	-11389.57633
192.931	5705.32099
193.154	-15311.8788
193.377	5833.11435
193.599	12032.61942
193.822	-1693.63056
194.044	1006.31797
194.267	1269.72968
194.489	159.95896
194.712	-5967.85109
194.934	4803.4276
195.157	-3524.85038
195.379	983.38894
195.602	1822.51875
195.824	10773.9067
196.047	4495.33196
196.269	-10566.66345
196.492	-10893.16807
196.714	-4405.08051
196.936	-4317.07847
197.159	6358.5562
197.381	-724.73331
197.604	2881.32227
197.826	-15311.65982
198.048	3754.77133
198.271	2263.02101
198.493	1726.28031
198.715	2613.16711
198.938	-3343.96145
199.16	2546.87315
199.382	3346.22859
199.604	4324.32301
199.827	-1356.57062
200.049	-2145.81725
200.271	3751.29711
200.493	-3115.70139
200.715	8252.94516
200.938	3346.3095
201.16	-6754.00068
201.382	-183903.60471
201.604	-8032.1705
201.826	2294.05376
202.048	22574.45928
202.27	19635.33239
202.492	5144.99029
202.715	-6005.46508
202.937	-6122.32886
203.159	-46889.08606
203.381	2186.11905
203.603	4269.10094
203.825	-1784.76692
204.047	4278.05751
204.269	11991.37496
204.491	1532.45297
204.713	9302.11925
204.935	6448.68559
205.156	-9778.95684
205.378	953.83284
205.6	3031.68615
205.822	4907.4881
206.044	1689.58363
206.266	5087.45622
206.488	2405.00819
206.71	16062.81536
206.932	-11847.61558
207.153	-4502.01603
207.375	5732.22
207.597	8996.29783
207.819	2993.65049
208.041	27104.19803
208.262	-1727.17464
208.484	-4807.2756
208.706	1174.9939
208.927	4236.18415
209.149	2464.425
209.371	4489.58706
209.593	433.06504
209.814	3612.36847
210.036	2732.31433
210.258	1511.09103
210.479	853.11369
210.701	1543.67262
210.922	-10019.03899
211.144	3549.23407
211.366	1769.77326
211.587	1482.78869
211.809	8921.71752
212.03	3484.88049
212.252	3191.97784
212.473	6523.67521
212.695	1780.9798
212.916	3930.8939
213.138	1493.65908
213.359	-5039.81684
213.581	1716.2288
213.802	1214.68097
214.024	-11663.50484
214.245	-4465.7342
214.466	1217.12727
214.688	2857.16521
214.909	3275.29141
215.131	-12150.02352
215.352	2216.57018
215.573	14612.41901
215.795	1940.34933
216.016	3479.87561
216.237	-1271.62483
216.459	2604.51908
216.68	-15599.98654
216.901	3164.52233
217.122	-8819.09711
217.344	-2049.96341
217.565	-56907.61017
217.786	-102701.18282
218.007	571.02962
218.228	745.37556
218.45	16660.22798
218.671	535.31316
218.892	1715.56848
219.113	1337.94251
219.334	-1373.52199
219.555	4212.51154
219.776	6278.33246
219.997	4986.35868
220.219	5218.51627
220.44	1311.91721
220.661	-10555.11292
220.882	5705.19817
221.103	-11626.77255
221.324	1461.9438
221.545	2961.26677
221.766	2364.72761
221.987	2018.0178
222.208	710.69701
222.429	1650.88801
222.65	324.17685
222.87	770.91226
223.091	2856.42823
223.312	2105.85105
223.533	1125.28895
223.754	7389.94543
223.975	6473.88749
224.196	1064.96067
224.417	-23362.54427
224.637	710.71931
224.858	308.52936
225.079	9214.43952
225.3	2032.94442
225.521	2864.17433
225.741	696.57331
225.962	681.8677
226.183	345.53039
226.404	1130.27074
226.624	1361.1754
226.845	646.66891
227.066	638.21559
227.286	338.55233
227.507	194.04267
227.728	178.49364
227.948	275.74341
228.169	98.16274
228.389	97.84769
228.61	54.79539
228.831	68.66214
229.051	10.11642
229.272	41.85173
229.492	62.22369
229.713	20.63396
229.933	46.31544
230.154	40.25971
230.374	65.13495
230.595	47.58457
230.815	28.50291
231.036	52.09974
231.256	-5.2199
231.477	88.36223
231.697	47.65664
231.917	57.13375
232.138	74.59597
232.358	149.74486
232.579	134.16333
232.799	29.73832
233.019	120.70818
233.24	148.0135
233.46	56.40503
233.68	81.27505
233.901	48.72237
234.121	38.98646
234.341	15.6979
234.561	-3.77387
234.782	29.92571
235.002	88.99019
235.222	1.83926
235.442	77.12966
235.662	40.69477
235.883	79.87303
236.103	69.77572
236.323	53.60196
236.543	39.36654
236.763	51.77136
236.983	54.89848
237.203	61.93237
237.423	78.32621
237.643	113.73623
237.864	93.42902
238.084	25.16091
238.304	37.4022
238.524	61.72938
238.744	50.88767
238.964	87.58379
239.184	74.22645
239.404	80.48631
239.624	41.85752
239.843	70.93933
240.063	44.15212
240.283	30.77521
240.503	33.32724
240.723	29.76817
240.943	19.04998
241.163	23.28645
241.383	18.52543
241.603	9.28645
241.822	9.5981
242.042	7.90458
242.262	9.92555
242.482	11.34082
242.702	12.82808
242.921	4.36743
243.141	8.74649
243.361	8.13099
243.581	12.47818
243.8	9.56771
244.02	6.74425
244.24	12.9285
244.459	11.53379
244.679	23.49075
244.899	16.00329
245.118	17.63446
245.338	14.56676
245.558	18.53325
245.777	9.96488
245.997	12.40506
246.216	13.13315
246.436	7.47365
246.655	5.71375
246.875	4.19049
247.094	7.73698
247.314	3.07986
247.533	4.68332
247.753	5.68388
247.972	4.5197
248.192	1.83455
248.411	2.7901
248.631	4.64886
248.85	6.04066
249.07	5.38484
249.289	8.02806
249.508	6.28153
249.728	10.12423
249.947	10.15756
250.166	11.5151
250.386	7.35982
250.605	9.67654
250.824	15.11563
251.044	10.46715
251.263	30.15903
251.482	16.91205
251.701	14.51457
251.921	0.08054
252.14	5.0611
252.359	5.47041
252.578	12.51601
252.798	4.00592
253.017	11.27765
253.236	5.16802
253.455	8.19954
253.674	14.81152
253.893	7.77224
254.112	10.74099
254.331	15.34291
254.551	13.38249
254.77	6.31469
254.989	18.56638
255.208	14.09021
255.427	19.29265
255.646	16.97503
255.865	27.10479
256.084	9.76005
256.303	13.88052
256.522	17.6491
256.741	4.61707
256.96	4.56377
257.179	10.05462
257.397	14.21112
257.616	6.83528
257.835	8.45015
258.054	18.65822
258.273	12.15011
258.492	13.14406
258.711	8.33788
258.93	3.38718
259.148	5.17877
259.367	5.61692
259.586	6.47082
259.805	2.93008
260.023	6.00701
260.242	4.65649
260.461	3.41447
260.68	1.861
260.898	5.61529
261.117	1.9413
261.336	1.5976
261.554	4.53662
261.773	4.9834
261.992	1.19815
262.21	4.58773
262.429	5.67671
262.648	8.73406
262.866	10.36983
263.085	7.03098
263.303	6.52063
263.522	11.18169
263.74	11.64609
263.959	18.93805
264.178	9.22795
264.396	8.64524
264.615	6.58681
264.833	14.81267
265.051	12.30371
265.27	12.81812
265.488	13.4932
265.707	8.05882
265.925	13.87639
266.144	5.96856
266.362	7.46075
266.58	7.24839
266.799	6.64305
267.017	7.05204
267.235	6.53443
267.454	4.54791
267.672	2.58362
267.89	5.7048
268.109	5.95571
268.327	6.04898
268.545	1.69125
268.763	5.51223
268.982	2.17022
269.2	6.50201
269.418	4.09263
269.636	3.11958
269.854	5.94146
270.073	4.16409
270.291	2.30833
270.509	2.70793
270.727	5.67954
270.945	9.21814
271.163	8.88932
271.381	2.22375
271.599	3.80593
271.817	6.60426
272.036	2.50544
272.254	3.95475
272.472	3.30741
272.69	3.2516
272.908	3.34646
273.126	5.40846
273.344	6.76921
273.562	2.65759
273.779	3.40415
273.997	4.91197
274.215	5.55934
274.433	4.15126
274.651	6.02542
274.869	6.18241
275.087	4.16214
275.305	5.46697
275.523	3.15163
275.74	3.86223
275.958	6.8596
276.176	10.49243
276.394	3.17377
276.612	4.09463
276.829	4.01505
277.047	3.65477
277.265	3.86206
277.483	4.53731
277.7	5.63376
277.918	4.72348
278.136	8.15395
278.353	3.91177
278.571	2.50108
278.789	6.21678
279.006	1.74091
279.224	4.07817
279.442	6.14063
279.659	4.28609
279.877	3.04443
280.094	6.83211
280.312	1.6066
280.529	4.44922
280.747	1.24254
280.964	3.57213
281.182	7.41834
281.399	3.5784
281.617	4.4793
281.834	3.47014
282.052	2.94922
282.269	3.95805
282.487	3.05824
282.704	2.76264
282.921	2.92385
283.139	4.62042
283.356	5.21393
283.574	4.73204
283.791	2.27695
284.008	6.71519
284.226	3.78722
284.443	4.23141
284.66	5.37671
284.877	4.41707
285.095	2.81566
285.312	2.1406
285.529	1.32399
285.746	1.34378
285.964	2.64772
286.181	1.71312
286.398	2.5623
286.615	3.41789
286.832	3.1819
287.05	1.1609
287.267	2.48705
287.484	2.45091
287.701	3.60396
287.918	3.40744
288.135	3.58623
288.352	1.74357
288.569	2.11602
288.786	3.07581
289.003	2.56788
289.22	3.64373
289.437	2.15007
289.654	3.65238
289.871	3.84631
290.088	3.62234
290.305	2.7091
290.522	2.26967
290.739	2.63666
290.956	3.9209
291.173	4.68861
291.39	4.46082
291.607	3.18973
291.824	2.34838
292.04	1.72041
292.257	3.60463
292.474	4.27894
292.691	2.61011
292.908	1.30603
293.125	2.47494
293.341	1.58456
293.558	6.22919
293.775	2.61277
293.992	2.83658
294.208	1.03448
294.425	1.65353
294.642	2.61479
294.858	3.16302
295.075	1.07259
295.292	2.53681
295.508	2.99761
295.725	4.65573
295.942	2.40423
296.158	1.63333
296.375	2.57364
296.591	1.94875
296.808	2.04357
297.024	2.33075
297.241	2.77585
297.458	2.92308
297.674	0.29336
297.891	2.47824
298.107	1.75625
298.323	1.49157
298.54	3.48364
298.756	1.76654
298.973	0.91944
299.189	3.63728
299.406	1.5824
299.622	3.71487
299.838	3.54634
300.055	3.18583
300.271	0.97156
300.487	1.35654
300.704	1.43506
300.92	0.98246
301.136	4.68383
301.353	3.70063
301.569	2.48381
301.785	2.79448
302.001	3.40254
302.218	3.01671
302.434	3.09632
302.65	0.88186
302.866	2.08544
303.083	4.90064
303.299	4.59314
303.515	2.26364
303.731	2.6759
303.947	0.94945
304.163	1.68673
304.379	2.62844
304.595	3.09283
304.812	1.68842
305.028	1.49715
305.244	2.32832
305.46	3.46465
305.676	3.56793
305.892	4.11955
306.108	2.83996
306.324	2.22914
306.54	4.66981
306.756	3.01208
306.972	3.01907
307.187	2.20789
307.403	4.27758
307.619	1.88684
307.835	3.5626
308.051	4.16537
308.267	1.31847
308.483	3.53135
308.699	2.82887
308.914	2.38577
309.13	2.38308
309.346	0.80883
309.562	1.28308
309.778	0.83627
309.993	3.00176
310.209	2.31263
310.425	1.24278
310.641	2.03222
310.856	1.24363
311.072	1.2212
311.288	2.48166
311.503	2.4271
311.719	0.70115
311.935	0.43047
312.15	2.58783
312.366	2.36842
312.581	3.032
312.797	2.31856
313.013	3.00315
313.228	1.72681
313.444	2.50771
313.659	1.73921
313.875	2.65945
314.09	2.21258
314.306	3.90883
314.521	3.34892
314.737	2.77619
314.952	2.5007
315.168	2.28258
315.383	3.16078
315.599	2.3386
315.814	2.33734
316.029	3.51176
316.245	1.08
316.46	0.72581
316.675	4.05429
316.891	4.6798
317.106	5.79554
317.321	3.10641
317.537	3.01905
317.752	3.19691
317.967	3.38863
318.183	1.53089
318.398	2.25904
318.613	3.47571
318.828	4.0905
319.043	3.56115
319.259	2.25006
319.474	2.94562
319.689	3.82819
319.904	0.89736
320.119	3.43663
320.334	2.81211
320.549	2.28013
320.765	3.90617
320.98	2.93524
321.195	3.4972
321.41	2.16832
321.625	3.42421
321.84	4.67785
322.055	4.4101
322.27	2.09249
322.485	1.54941
322.7	3.23902
322.915	3.92799
323.13	1.73561
323.345	3.97769
323.56	3.26765
323.775	3.12245
323.989	3.00863
324.204	2.67398
324.419	3.61684
324.634	1.10722
324.849	2.26872
325.064	4.88981
325.279	3.49342
325.493	3.22583
325.708	3.89081
325.923	1.80281
326.138	1.81126
326.352	4.31897
326.567	3.58928
326.782	2.09662
326.997	1.60029
327.211	3.35435
327.426	3.0213
327.641	2.2081
327.855	0.93941
328.07	2.98583
328.285	4.57637
328.499	2.228
328.714	2.92259
328.928	3.35424
329.143	2.71124
329.358	3.92563
329.572	3.7157
329.787	3.9765
330.001	5.18117
330.216	1.05938
330.43	4.50407
330.645	4.51058
330.859	3.49549
331.074	1.86805
331.288	2.68717
331.503	4.05838
331.717	1.71748
331.931	2.63889
332.146	2.85277
332.36	4.74856
332.575	3.25586
332.789	2.96414
333.003	2.3769
333.218	3.12945
333.432	1.90742
333.646	3.39715
333.86	4.09025
334.075	4.37051
334.289	2.0475
334.503	1.66339
334.717	3.20294
334.932	3.00708
335.146	4.44769
335.36	2.34225
335.574	3.4276
335.788	3.41601
336.003	4.09267
336.217	3.33412
336.431	3.27714
336.645	2.1827
336.859	1.46757
337.073	2.39846
337.287	2.78548
337.501	1.59213
337.715	2.59537
337.929	3.17963
338.143	1.29012
338.357	2.33926
338.571	1.48178
338.785	3.01744
338.999	2.04788
339.213	1.96176
339.427	1.19316
339.641	4.03851
339.855	2.28654
340.069	2.19617
340.283	3.66069
340.497	4.50315
340.711	3.121
340.924	2.42288
341.138	1.47788
341.352	1.00869
341.566	2.61374
341.78	0.65734
341.993	1.88038
342.207	1.52053
342.421	2.82162
342.635	2.79552
342.848	1.82921
343.062	0.60726
343.276	1.78825
343.49	4.6847
343.703	1.75834
343.917	3.52102
344.131	3.34177
344.344	1.8071
344.558	2.03187
344.771	1.5025
344.985	3.80415
345.199	3.99655
345.412	2.82606
345.626	2.73991
345.839	0.73264
346.053	1.29342
346.266	1.32516
346.48	3.19965
346.693	2.83067
346.907	2.93597
347.12	1.67987
347.334	2.58279
347.547	2.94057
347.76	2.17652
347.974	3.70376
348.187	2.85982
348.401	2.24916
348.614	1.91378
348.827	2.22998
349.041	3.29647
349.254	0.64269
349.467	2.30622
349.681	1.31949
349.894	1.82806
350.107	3.47495
350.32	4.25532
350.534	0.93777
350.747	2.12091
350.96	1.62015
351.173	1.8825
351.386	1.8873
351.6	1.71197
351.813	1.81435
352.026	2.35751
352.239	1.28784
352.452	2.24548
352.665	3.2297
352.878	2.17108
353.092	4.47409
353.305	3.02503
353.518	2.50559
353.731	1.43298
353.944	3.39341
354.157	1.53586
354.37	1.4843
354.583	1.38266
354.796	0.69651
355.009	3.3706
355.222	2.40483
355.435	2.39952
355.647	3.3702
355.86	1.44217
356.073	2.11299
356.286	1.73699
356.499	2.89847
356.712	2.50128
356.925	2.62375
357.138	3.07544
357.35	1.28492
357.563	1.87653
357.776	2.33806
357.989	1.95571
358.201	2.64696
358.414	2.40849
358.627	3.32335
358.84	1.73892
359.052	1.24099
359.265	1.27947
359.478	3.00676
359.69	-0.16915
359.903	2.87436
360.116	2.85042
360.328	0.64357
360.541	2.81438
360.753	1.3337
360.966	1.5713
361.179	1.65081
361.391	1.56353
361.604	1.05578
361.816	1.56085
362.029	1.32812
362.241	1.19265
362.454	1.44355
362.666	1.11006
362.879	2.03227
363.091	1.81664
363.304	1.31552
363.516	1.88816
363.728	0.86118
363.941	2.40662
364.153	1.55278
364.366	0.14084
364.578	1.02496
364.79	2.36195
365.003	2.00957
365.215	1.51887
365.427	2.40723
365.639	3.01084
365.852	2.19563
366.064	3.73041
366.276	1.62613
366.488	2.38595
366.701	1.71977
366.913	1.80924
367.125	1.46545
367.337	1.70084
367.549	1.50337
367.762	2.05487
367.974	2.10405
368.186	1.4
368.398	2.9353
368.61	2.61381
368.822	2.82639
369.034	2.0033
369.246	2.60272
369.458	4.20686
369.67	1.28394
369.882	3.75417
370.094	0.22496
370.306	3.57748
370.518	1.74909
370.73	1.42433
370.942	1.29097
371.154	1.85721
371.366	1.51231
371.578	2.22612
371.79	1.19062
372.002	2.91133
372.214	3.67339
372.425	2.14784
372.637	3.35738
372.849	2.26692
373.061	0.01552
373.273	2.34417
373.484	2.37954
373.696	2.74143
373.908	0.15874
374.12	2.96515
374.331	2.55386
374.543	1.31613
374.755	1.14372
374.967	2.15735
375.178	2.69788
375.39	1.84222
375.602	1.99212
375.813	0.98205
376.025	0.91189
376.236	2.14866
376.448	2.06775
376.66	1.5788
376.871	1.60015
377.083	2.75641
377.294	2.95881
377.506	1.42847
377.717	2.94995
377.929	2.06298
378.14	1.41879
378.352	2.35952
378.563	2.34688
378.775	3.06013
378.986	1.30141
379.197	2.39257
379.409	1.48766
379.62	2.6504
379.832	2.14278
380.043	1.88473
380.254	2.21501
380.466	1.01722
380.677	4.21042
380.888	3.92884
381.1	4.25107
381.311	4.04082
381.522	2.02836
381.733	4.65384
381.945	1.84897
382.156	2.0738
382.367	1.73085
382.578	4.49623
382.789	4.43776
383.001	1.6106
383.212	3.17164
383.423	3.4298
383.634	3.08335
383.845	2.4315
384.056	1.81685
384.267	2.02038
384.478	1.95728
384.69	1.26867
384.901	2.3879
385.112	2.39814
385.323	3.4428
385.534	2.42081
385.745	2.13958
385.956	2.41033
386.167	1.29421
386.378	2.50775
386.588	1.39386
386.799	1.3789
387.01	0.66083
387.221	2.93252
387.432	1.8811
387.643	3.73072
387.854	1.73053
388.065	1.8334
388.275	1.83598
388.486	1.67449
388.697	1.97709
388.908	1.71778
389.119	2.9383
389.329	3.56021
389.54	2.13603
389.751	2.25506
389.962	3.15878
390.172	2.34668
390.383	1.64838
390.594	1.54147
390.804	1.37921
391.015	1.5948
391.226	2.11257
391.436	2.49871
391.647	2.15261
391.858	2.62856
392.068	0.69331
392.279	1.07941
392.489	2.30138
392.7	2.89566
392.91	1.23317
393.121	1.43784
393.331	2.40786
393.542	3.0785
393.752	2.51803
393.963	2.26172
394.173	2.07763
394.384	2.64211
394.594	1.95555
394.804	1.10723
395.015	2.24136
395.225	2.49659
395.436	1.19406
395.646	2.497
395.856	1.59532
396.067	0.97879
396.277	2.90864
396.487	2.37988
396.697	2.30661
396.908	2.98103
397.118	2.57223
397.328	2.32823
397.538	3.01205
397.749	1.49249
397.959	2.76183
398.169	2.7332
398.379	0.94733
398.589	2.72732
398.8	2.21141
399.01	2.07048
399.22	1.90438
399.43	4.14568
399.64	1.83827
399.85	2.65602
400.06	2.13758
400.27	1.69054
400.48	2.1043
400.69	3.34842
400.9	1.68163
401.11	1.60837
401.32	2.87681
401.53	1.79245
401.74	3.5015
401.95	2.86312
402.16	1.45414
402.37	2.65286
402.58	1.69414
402.79	2.6505
403	2.90424
403.209	1.6024
403.419	2.6983
403.629	1.76149
403.839	2.62183
404.049	2.81119
404.258	1.57109
404.468	1.53405
404.678	2.65384
404.888	2.71253
405.097	1.53031
405.307	1.96526
405.517	2.64396
405.727	2.37981
405.936	1.81481
406.146	2.35499
406.356	3.2712
406.565	2.10134
406.775	1.65129
406.984	1.76571
407.194	3.71042
407.404	2.23167
407.613	2.51047
407.823	2.81148
408.032	3.20952
408.242	3.255
408.451	1.73753
408.661	2.14659
408.87	3.64307
409.08	1.70483
409.289	2.60656
409.499	2.36224
409.708	2.28527
409.918	0.64449
410.127	2.20425
410.336	3.40443
410.546	2.74421
410.755	1.95127
410.964	1.94127
411.174	1.45021
411.383	2.72161
411.592	2.68104
411.802	1.425
412.011	2.99818
412.22	2.19506
412.429	3.65786
412.639	3.31803
412.848	3.16496
413.057	3.56829
413.266	3.31831
413.475	2.36244
413.685	3.18884
413.894	3.06911
414.103	3.22121
414.312	2.79044
414.521	2.33486
414.73	2.40754
414.939	3.90905
415.148	2.79246
415.357	2.60842
415.566	1.98436
415.776	1.96695
415.985	1.86441
416.194	2.88511
416.403	3.5949
416.611	1.32564
416.82	1.79707
417.029	2.2489
417.238	1.73562
417.447	1.49176
417.656	1.86918
417.865	1.66487
418.074	1.88744
418.283	1.92619
418.492	2.76803
418.7	2.58151
418.909	3.20423
419.118	2.32431
419.327	2.57813
419.536	2.31254
419.744	1.90175
419.953	3.2211
420.162	3.1511
420.371	2.0162
420.579	1.93168
420.788	3.0497
420.997	3.0024
421.205	3.04682
421.414	2.723
421.623	2.74725
421.831	2.21732
422.04	3.13517
422.249	2.15075
422.457	2.80104
422.666	2.14417
422.874	3.29087
423.083	3.30043
423.291	3.19706
423.5	2.86833
423.708	3.00341
423.917	3.4702
424.125	2.78265
424.334	2.52885
424.542	4.55894
424.751	3.60261
424.959	3.42545
425.167	3.79003
425.376	3.57204
425.584	2.84582
425.793	3.19205
426.001	2.23414
426.209	3.06842
426.418	2.06008
426.626	2.12951
426.834	1.95558
427.042	2.47467
427.251	2.07314
427.459	3.02059
427.667	2.72693
427.875	1.70525
428.084	2.02383
428.292	3.4312
428.5	2.97538
428.708	2.01651
428.916	1.94516
429.124	2.57655
429.333	2.24484
429.541	2.26515
429.749	2.51456
429.957	2.42892
430.165	4.16719
430.373	1.63122
430.581	2.66233
430.789	3.49595
430.997	2.04387
431.205	2.00261
431.413	2.60115
431.621	2.24854
431.829	2.95118
432.037	2.1867
432.245	2.78801
432.453	2.64897
432.661	2.21227
432.869	3.76299
433.076	1.86972
433.284	2.3419
433.492	2.81931
433.7	3.20017
433.908	2.19643
434.116	2.52109
434.323	2.66648
434.531	2.53229
434.739	2.8681
434.947	3.07819
435.154	3.02641
435.362	2.63764
435.57	2.3699
435.778	2.19199
435.985	2.90257
436.193	2.28837
436.401	3.33776
436.608	2.64052
436.816	2.29621
437.023	3.7767
437.231	3.59073
437.439	2.5901
437.646	3.05361
437.854	2.90292
438.061	3.04505
438.269	2.44936
438.476	2.91107
438.684	2.63919
438.891	2.29381
439.099	2.17948
439.306	1.66482
439.514	1.97395
439.721	2.96214
439.929	2.30801
440.136	3.1808
440.343	3.10527
440.551	2.63242
440.758	4.30426
440.965	3.19331
441.173	2.93658
441.38	2.43401
441.587	2.97994
441.795	2.36112
442.002	2.78698
442.209	2.84247
442.416	3.04556
442.624	3.05485
442.831	2.9718
443.038	2.25204
443.245	2.11039
443.452	2.47533
443.66	3.20095
443.867	2.28425
444.074	2.3097
444.281	2.12404
444.488	2.47065
444.695	2.54125
444.902	2.29326
445.109	3.21612
445.316	2.6143
445.523	2.64461
445.73	2.49504
445.937	3.11217
446.144	3.53285
446.351	3.53436
446.558	2.54668
446.765	3.93985
446.972	3.89595
447.179	3.11737
447.386	4.16268
447.593	2.72664
447.8	3.84413
448.007	2.68539
448.214	2.75864
448.42	2.38115
448.627	3.44727
448.834	2.61763
449.041	2.60605
449.248	2.51402
449.454	3.35428
449.661	4.0222
449.868	2.56066
450.075	2.34551
450.281	1.49492
450.488	2.2069
450.695	2.25609
450.901	2.26834
451.108	2.60087
451.315	3.39547
451.521	2.65379
451.728	3.36117
451.935	2.31743
452.141	2.5944
452.348	2.68418
452.554	2.80515
452.761	2.50184
452.967	3.78395
453.174	2.9171
453.38	2.89092
453.587	1.99843
453.793	2.73179
454	3.40505
454.206	4.17934
454.413	3.65791
454.619	3.11826
454.825	2.43406
455.032	3.21124
455.238	3.42364
455.445	2.08504
455.651	3.00885
455.857	1.65797
456.064	2.63417
456.27	2.62049
456.476	2.66449
456.682	1.99577
456.889	3.17654
457.095	3.30603
457.301	4.48115
457.507	2.9089
457.714	2.80072
457.92	2.77718
458.126	2.24771
458.332	2.59439
458.538	2.3036
458.744	2.50384
458.951	2.53064
459.157	4.02972
459.363	3.17868
459.569	3.08357
459.775	3.84649
459.981	2.80675
460.187	3.24532
460.393	3.61142
460.599	4.21152
460.805	3.21384
461.011	2.9978
461.217	3.44635
461.423	3.72099
461.629	2.75835
461.835	3.49084
462.041	2.89562
462.247	4.18345
462.453	2.82274
462.658	3.03841
462.864	3.52598
463.07	3.28653
463.276	3.16799
463.482	3.25328
463.688	4.01302
463.893	2.73363
464.099	2.83726
464.305	4.09077
464.511	2.74388
464.716	3.01191
464.922	3.52766
465.128	2.49923
465.333	4.3382
465.539	3.53899
465.745	2.96152
465.95	3.41586
466.156	4.95757
466.362	3.90984
466.567	3.01813
466.773	2.9369
466.978	4.29781
467.184	2.5737
467.389	1.72012
467.595	3.44608
467.8	2.59353
468.006	3.97809
468.211	4.00322
468.417	2.4522
468.622	3.52021
468.828	3.59892
469.033	3.2621
469.239	5.10679
469.444	2.88313
469.649	3.875
469.855	3.04806
470.06	3.28524
470.266	2.42377
470.471	3.69477
470.676	3.6278
470.881	2.21604
471.087	4.03744
471.292	4.71987
471.497	2.31299
471.703	3.02576
471.908	2.93974
472.113	3.45422
472.318	3.8719
472.523	2.46128
472.729	3.52332
472.934	3.65244
473.139	2.94694
473.344	3.69978
473.549	4.16318
473.754	2.94306
473.959	4.74246
474.164	2.80296
474.369	3.22822
474.575	3.83899
474.78	3.48522
474.985	2.88393
475.19	2.17136
475.395	2.76411
475.6	2.94516
475.804	4.17823
476.009	3.2498
476.214	3.26894
476.419	2.9678
476.624	2.19853
476.829	2.66261
477.034	3.50697
477.239	2.67187
477.444	3.72917
477.648	3.44068
477.853	3.60108
478.058	2.8768
478.263	2.74196
478.468	2.49327
478.672	2.67088
478.877	3.99897
479.082	4.33912
479.287	3.48321
479.491	3.32852
479.696	2.43952
479.901	3.81331
480.105	3.65412
480.31	2.77598
480.515	2.99686
480.719	4.63153
480.924	2.74246
481.128	2.39646
481.333	3.08359
481.538	3.23586
481.742	2.99855
481.947	3.76167
482.151	4.02228
482.356	3.99796
482.56	5.05841
482.765	5.40117
482.969	6.78942
483.174	7.62739
483.378	9.14194
483.582	8.67966
483.787	9.80426
483.991	9.63967
484.196	9.60873
484.4	9.45593
484.604	9.83277
484.809	8.3206
485.013	8.23924
485.217	7.13551
485.422	6.30669
485.626	5.74663
485.83	5.43455
486.034	5.29322
486.239	5.56664
486.443	5.58779
486.647	5.60434
486.851	6.54174
487.055	7.11414
487.26	6.4892
487.464	7.13648
487.668	6.45406
487.872	6.36213
488.076	7.11101
488.28	6.40976
488.484	5.91431
488.688	5.93232
488.892	5.90062
489.096	5.55993
489.3	4.91973
489.504	4.59531
489.708	4.82591
489.912	4.70681
490.116	4.6278
490.32	3.87917
490.524	4.77195
490.728	5.29973
490.932	5.09843
491.136	5.27855
491.34	6.28737
491.544	6.4842
491.748	5.86422
491.951	5.9884
492.155	5.65064
492.359	5.78341
492.563	4.66821
492.767	4.51313
492.97	4.16126
493.174	3.57395
493.378	3.47592
493.582	2.93526
493.785	3.3302
493.989	3.62035
494.193	3.6365
494.396	3.12812
494.6	4.06165
494.804	3.38361
495.007	3.18333
495.211	3.04934
495.414	3.26933
495.618	3.50128
495.822	4.1176
496.025	3.3528
496.229	3.89441
496.432	2.90835
496.636	3.29694
496.839	3.31326
497.043	4.32933
497.246	3.45051
497.45	3.1078
497.653	3.25505
497.856	3.60365
498.06	2.7501
498.263	3.22879
498.467	3.08974
498.67	3.86737
498.873	3.62938
499.077	3.26
499.28	3.20305
499.483	3.64114
499.686	4.00744
499.89	3.56909
500.093	3.86872
500.296	3.06889
500.499	4.32504
500.703	3.4408
500.906	3.66539
501.109	4.67466
501.312	3.62535
501.515	3.37533
501.719	3.71
501.922	4.55876
502.125	3.57829
502.328	3.56626
502.531	2.87553
502.734	3.58159
502.937	2.48248
503.14	3.69155
503.343	2.87229
503.546	3.36187
503.749	3.05533
503.952	3.86977
504.155	2.90186
504.358	3.9135
504.561	3.42344
504.764	2.82331
504.967	3.57128
505.17	3.55502
505.373	4.53049
505.576	3.61538
505.778	3.98279
505.981	3.13103
506.184	4.30024
506.387	2.42298
506.59	4.7426
506.793	4.28466
506.995	3.73097
507.198	2.48335
507.401	3.6489
507.604	3.74035
507.806	2.78596
508.009	3.02423
508.212	3.76512
508.414	3.07083
508.617	3.0631
508.82	3.52324
509.022	4.2159
509.225	3.75879
509.427	2.52637
509.63	4.26122
509.833	3.46424
510.035	3.24532
510.238	2.63447
510.44	4.1964
510.643	2.19551
510.845	4.94385
511.048	3.90924
511.25	3.26215
511.453	3.38786
511.655	3.80692
511.858	3.30699
512.06	4.14085
512.262	3.54379
512.465	4.05938
512.667	3.23537
512.869	2.93506
513.072	3.63571
513.274	4.14176
513.476	3.94021
513.679	4.18797
513.881	3.04416
514.083	4.52919
514.286	3.17606
514.488	3.23211
514.69	3.06381
514.892	2.70468
515.094	3.99073
515.297	3.34719
515.499	3.74461
515.701	3.11677
515.903	4.75695
516.105	4.66342
516.307	4.02877
516.509	2.46871
516.711	2.87611
516.913	3.60249
517.116	3.393
517.318	3.27257
517.52	4.07247
517.722	3.85395
517.924	2.70616
518.126	3.77115
518.328	3.17247
518.529	3.88498
518.731	4.59726
518.933	3.20744
519.135	3.45772
519.337	4.27123
519.539	3.86287
519.741	2.49821
519.943	3.43648
520.145	3.41516
520.346	3.96658
520.548	3.52549
520.75	3.91134
520.952	3.26338
521.153	3.81389
521.355	3.98653
521.557	2.97315
521.759	3.8227
521.96	3.67011
522.162	2.91507
522.364	4.4676
522.565	3.19892
522.767	4.21639
522.969	4.52927
523.17	4.05433
523.372	4.00055
523.573	3.27607
523.775	3.43246
523.977	2.95985
524.178	4.6696
524.38	3.07192
524.581	4.03378
524.783	3.23185
524.984	3.92213
525.186	3.65532
525.387	4.24384
525.589	3.88086
525.79	3.60868
525.991	3.45891
526.193	4.21041
526.394	3.05725
526.596	4.17757
526.797	4.19878
526.998	3.79619
527.2	3.74841
527.401	5.45562
527.602	5.58096
527.803	7.22306
528.005	7.22302
528.206	7.78568
528.407	8.1753
528.608	7.92151
528.81	8.02242
529.011	7.15747
529.212	8.30753
529.413	7.333
529.614	6.81164
529.815	6.65453
530.017	6.03637
530.218	5.30994
530.419	4.43069
530.62	4.5525
530.821	4.37878
531.022	3.40605
531.223	4.51357
531.424	4.41333
531.625	4.32334
531.826	4.21838
532.027	4.53419
532.228	5.53303
532.429	5.01182
532.63	4.99905
532.831	5.53517
533.032	5.51559
533.233	6.05961
533.433	5.75597
533.634	5.897
533.835	5.2375
534.036	4.80553
534.237	4.73481
534.438	4.27775
534.638	3.54025
534.839	3.69029
535.04	4.0256
535.241	3.52732
535.441	4.73738
535.642	3.98239
535.843	3.36521
536.043	3.4661
536.244	3.63689
536.445	3.69421
536.645	4.69081
536.846	4.12916
537.047	4.86624
537.247	3.48159
537.448	3.72956
537.648	3.78147
537.849	3.71504
538.049	3.63693
538.25	4.2395
538.451	4.14701
538.651	3.3762
538.851	4.0972
539.052	4.6849
539.252	4.4084
539.453	3.83375
539.653	3.93987
539.854	3.687
540.054	3.93609
540.254	5.00355
540.455	5.59124
540.655	5.01945
540.855	5.85479
541.056	6.51759
541.256	5.86636
541.456	6.99676
541.657	5.95333
541.857	7.08119
542.057	5.34083
542.257	5.24912
542.458	5.86994
542.658	5.80105
542.858	4.27272
543.058	5.12487
543.258	4.61591
543.458	3.42733
543.659	3.31375
543.859	4.22701
544.059	4.28467
544.259	3.79483
544.459	4.38711
544.659	3.66059
544.859	4.22635
545.059	3.50677
545.259	4.34638
545.459	4.10923
545.659	4.43456
545.859	3.92209
546.059	3.93798
546.259	3.41559
546.459	2.8904
546.659	3.14695
546.859	4.26933
547.059	3.98729
547.258	4.27314
547.458	4.25199
547.658	3.25494
547.858	3.2777
548.058	4.24042
548.258	3.845
548.457	3.41367
548.657	5.9434
548.857	3.96453
549.057	4.74196
549.256	4.51872
549.456	3.97923
549.656	2.69241
549.855	5.89565
550.055	4.06226
550.255	5.76224
550.454	4.62191
550.654	5.07188
550.853	5.50345
551.053	5.03992
551.253	4.53561
551.452	4.61416
551.652	3.54175
551.851	2.93136
552.051	3.86908
552.25	3.82412
552.45	3.6804
552.649	3.91662
552.849	3.53235
553.048	4.19003
553.248	4.60389
553.447	3.54081
553.646	4.90975
553.846	5.63142
554.045	5.18572
554.244	3.5741
554.444	5.97561
554.643	3.74792
554.842	5.60089
555.042	6.19936
555.241	3.92499
555.44	3.63844
555.64	4.7238
555.839	6.2334
556.038	4.88277
556.237	4.17498
556.436	4.35489
556.636	4.76559
556.835	3.75033
557.034	5.8604
557.233	4.49786
557.432	3.36636
557.631	5.30865
557.83	4.27347
558.029	4.17109
558.228	4.18877
558.427	3.44321
558.626	4.71301
558.825	3.70914
559.024	4.72422
559.223	6.15632
559.422	4.412
559.621	4.83621
559.82	2.41326
560.019	4.4944
560.218	4.0368
560.417	2.0022
560.616	3.99281
560.815	7.41302
561.014	3.15893
561.212	5.66447
561.411	4.83647
561.61	3.02616
561.809	4.22723
562.008	5.7289
562.206	4.37047
562.405	4.89858
562.604	4.53559
562.803	4.66939
563.001	4.41258
563.2	3.26715
563.399	4.95049
563.597	3.21277
563.796	4.70773
563.995	3.32478
564.193	4.88135
564.392	3.89019
564.59	6.34341
564.789	2.62489
564.988	4.08986
565.186	4.32038
565.385	4.14638
565.583	3.86199
565.782	4.13544
565.98	3.79712
566.179	3.95138
566.377	3.13647
566.575	3.62842
566.774	5.1243
566.972	4.9736
567.171	6.07254
567.369	5.38517
567.567	4.39009
567.766	4.61079
567.964	2.4567
568.162	4.80566
568.361	5.45238
568.559	4.38841
568.757	4.93819
568.956	4.64025
569.154	4.29583
569.352	5.00246
569.55	4.32159
569.748	4.30579
569.947	3.64141
570.145	3.65193
570.343	3.16317
570.541	5.40325
570.739	3.19847
570.937	4.22857
571.135	4.42802
571.333	5.76977
571.532	5.65101
571.73	4.42665
571.928	5.19097
572.126	4.54602
572.324	3.81463
572.522	5.45471
572.72	6.60802
572.918	4.31748
573.116	4.44265
573.313	4.2911
573.511	4.19716
573.709	3.94429
573.907	5.04385
574.105	4.0026
574.303	2.77707
574.501	2.95653
574.699	4.51315
574.896	4.56697
575.094	4.80036
575.292	3.11732
575.49	5.11066
575.688	4.25037
575.885	5.51005
576.083	5.98964
576.281	4.67305
576.478	3.82013
576.676	5.15734
576.874	3.251
577.071	4.22208
577.269	6.75451
577.467	4.31088
577.664	4.46942
577.862	5.30162
578.059	3.81168
578.257	5.65091
578.455	4.55315
578.652	4.86248
578.85	2.97607
579.047	4.74971
579.245	4.8343
579.442	4.72811
579.64	4.8675
579.837	2.8853
580.034	7.47516
580.232	4.40428
580.429	3.74449
580.627	5.49686
580.824	6.05598
581.021	5.28854
581.219	4.64269
581.416	3.96711
581.613	6.09927
581.811	6.31282
582.008	4.11763
582.205	5.75687
582.402	5.18627
582.6	6.58318
582.797	5.05899
582.994	5.53231
583.191	5.46638
583.388	4.97437
583.586	5.75859
583.783	6.37897
583.98	3.84944
584.177	5.0628
584.374	1.85653
584.571	5.00575
584.768	5.07332
584.965	4.84498
585.162	5.93071
585.359	6.84634
585.556	5.1472
585.753	5.49132
585.95	3.47954
586.147	4.3996
586.344	5.62649
586.541	4.82947
586.738	3.72681
586.935	4.90079
587.132	4.08074
587.329	6.0827
587.526	4.79394
587.722	10.41613
587.919	3.67564
588.116	5.36357
588.313	6.70275
588.51	7.6067
588.706	4.72182
588.903	5.37257
589.1	6.02513
589.297	7.96062
589.493	4.82688
589.69	5.37791
589.887	4.24025
590.083	3.46981
590.28	4.11955
590.477	6.32387
590.673	5.74755
590.87	6.59301
591.067	4.54321
591.263	5.67026
591.46	5.59723
591.656	4.81482
591.853	6.95594
592.049	4.23912
592.246	4.51403
592.442	6.55264
592.639	6.41149
592.835	3.70041
593.032	5.32515
593.228	3.43809
593.425	3.42588
593.621	3.49114
593.817	5.31601
594.014	4.32401
594.21	5.01963
594.406	6.03273
594.603	5.5241
594.799	4.276
594.995	2.47481
595.192	6.05785
595.388	4.37029
595.584	4.34316
595.78	3.09351
595.977	7.21883
596.173	6.40081
596.369	4.21745
596.565	3.53042
596.761	3.12129
596.957	5.83958
597.154	3.7221
597.35	3.98443
597.546	3.80009
597.742	5.17507
597.938	4.8663
598.134	3.8261
598.33	5.07553
598.526	6.95132
598.722	5.47243
598.918	7.33564
599.114	5.60366
599.31	4.0941
599.506	5.11885
599.702	4.51162
599.898	5.72438
600.094	6.59626
600.29	6.33883
600.485	6.44113
600.681	5.01426
600.877	7.21661
601.073	5.10982
601.269	7.58629
601.465	7.01101
601.66	4.29723
601.856	2.67286
602.052	7.20358
602.248	4.45726
602.443	2.62292
602.639	3.55004
602.835	3.73906
603.03	3.92225
603.226	5.80267
603.422	3.61458
603.617	4.40073
603.813	4.1168
604.009	4.04659
604.204	5.87636
604.4	2.95066
604.595	5.5199
604.791	3.4563
604.986	4.81427
605.182	3.55754
605.377	4.05908
605.573	3.80933
605.768	4.72933
605.964	5.54594
606.159	5.56931
606.355	6.33709
606.55	4.84787
606.746	6.5268
606.941	5.04499
607.136	7.68081
607.332	8.80715
607.527	3.61749
607.722	5.63304
607.918	5.1114
608.113	3.91567
608.308	5.85697
608.503	5.39231
608.699	5.35191
608.894	5.49827
609.089	3.87865
609.284	5.05251
609.479	4.24339
609.675	5.47966
609.87	4.31431
610.065	5.702
610.26	5.88004
610.455	5.92034
610.65	4.86797
610.845	5.2057
611.04	6.39139
611.235	4.91912
611.43	4.91641
611.625	3.56634
611.82	7.40288
612.015	4.38848
612.21	7.53045
612.405	3.87551
612.6	8.28984
612.795	7.46515
612.99	6.88977
613.185	4.27934
613.38	4.63611
613.575	5.96269
613.77	9.52795
613.965	3.72844
614.159	4.58934
614.354	7.28693
614.549	7.44064
614.744	6.57472
614.938	4.49254
615.133	4.04153
615.328	7.56032
615.523	7.65061
615.717	10.17306
615.912	5.36025
616.107	5.87814
616.301	5.20038
616.496	4.85214
616.691	8.21021
616.885	6.87918
617.08	9.63336
617.274	7.70802
617.469	9.17562
617.664	6.86251
617.858	5.00858
618.053	6.68056
618.247	5.73481
618.442	2.47243
618.636	8.05542
618.831	5.40859
619.025	5.14502
619.219	10.0434
619.414	1.11521
619.608	5.71175
619.803	4.8499
619.997	9.22714
620.191	7.70746
620.386	6.5647
620.58	6.05696
620.774	3.33134
620.969	3.4467
621.163	6.16788
621.357	3.93595
621.551	5.49685
621.746	6.41145
621.94	6.19268
622.134	12.14855
622.328	9.52807
622.522	4.007
622.716	7.58467
622.911	7.70318
623.105	7.64865
623.299	6.79081
623.493	11.85781
623.687	4.99829
623.881	5.82946
624.075	7.35164
624.269	7.47237
624.463	2.89357
624.657	3.54746
624.851	7.16958
625.045	7.44242
625.239	7.38079
625.433	4.96082
625.627	8.2223
625.821	5.24731
626.015	4.55063
626.209	5.7696
626.403	3.44421
626.596	6.46642
626.79	6.89905
626.984	3.54522
627.178	6.29045
627.372	6.45628
627.565	6.98389
627.759	3.401
627.953	4.01912
628.147	6.34614
628.34	7.05473
628.534	9.26518
628.728	5.70775
628.921	7.7995
629.115	7.49275
629.309	7.4544
629.502	8.0104
629.696	6.73859
629.89	6.45007
630.083	6.25949
630.277	7.36938
630.47	9.66277
630.664	6.01589
630.857	3.97266
631.051	8.03
631.244	8.38804
631.438	7.90134
631.631	5.32033
631.825	8.69374
632.018	7.18238
632.212	9.7179
632.405	8.74525
632.598	5.19407
632.792	7.17803
632.985	2.22749
633.178	5.41168
633.372	6.16489
633.565	6.46005
633.758	8.87371
633.952	5.06281
634.145	5.01636
634.338	6.51535
634.531	5.34981
634.724	5.1116
634.918	6.76488
635.111	6.15348
635.304	5.69674
635.497	10.54895
635.69	7.09673
635.883	8.52883
636.077	4.6452
636.27	7.85025
636.463	6.8336
636.656	7.53765
636.849	5.72141
637.042	7.59449
637.235	10.18564
637.428	8.37579
637.621	8.5547
637.814	9.88443
638.007	10.38091
638.2	10.12483
638.393	10.99241
638.586	4.52022
638.778	6.04731
638.971	7.48683
639.164	10.42022
639.357	8.15112
639.55	9.8574
639.743	9.05964
639.935	8.73483
640.128	12.0497
640.321	8.80886
640.514	7.84587
640.707	13.12836
640.899	9.50621
641.092	4.30043
641.285	23.2547
641.477	3.11447
641.67	12.11058
641.863	9.87575
642.055	8.46499
642.248	7.95676
642.441	6.83543
642.633	9.44066
642.826	10.22394
643.018	10.64811
643.211	11.85924
643.403	12.07805
643.596	12.76291
643.788	12.46125
643.981	7.11358
644.173	9.79577
644.366	7.62864
644.558	4.6204
644.751	9.99237
644.943	4.82161
645.135	11.68345
645.328	12.59565
645.52	9.7297
645.712	10.08224
645.905	15.70887
646.097	6.21879
646.289	9.21669
646.482	13.06869
646.674	6.67662
646.866	10.77642
647.058	9.39788
647.251	6.15693
647.443	6.79912
647.635	8.0126
647.827	5.89055
648.019	6.23264
648.211	8.47558
648.404	8.51958
648.596	11.96995
648.788	8.99423
648.98	9.24203
649.172	9.19447
649.364	9.8607
649.556	4.9483
649.748	13.79473
649.94	6.45117
650.132	9.61413
650.324	6.54058
650.516	6.70728
650.708	11.06358
650.9	5.20892
651.092	7.33511
651.284	4.83708
651.476	5.66354
651.667	9.75235
651.859	11.31983
652.051	8.21779
652.243	9.18463
652.435	7.02454
652.627	9.57276
652.818	9.53336
653.01	4.95762
653.202	6.37213
653.394	7.94077
653.585	10.39431
653.777	19.3394
653.969	12.05337
654.16	11.50829
654.352	6.33885
654.544	8.40959
654.735	11.69363
654.927	9.23117
655.118	12.59923
655.31	10.8117
655.502	11.64586
655.693	7.52002
655.885	9.98041
656.076	12.6732
656.268	9.16271
656.459	12.54971
656.651	13.04164
656.842	7.77185
657.034	7.1044
657.225	10.55185
657.416	12.51494
657.608	11.71857
657.799	8.40744
657.99	10.71508
658.182	6.59549
658.373	6.90893
658.564	9.84881
658.756	8.10061
658.947	7.80933
659.138	6.05871
659.33	6.66431
659.521	6.40012
659.712	7.5675
659.903	7.33942
660.094	6.85221
660.286	4.47847
660.477	13.05436
660.668	9.98642
660.859	8.86923
661.05	5.68416
661.241	10.21738
661.432	10.0274
661.623	8.16697
661.814	7.73959
662.006	5.00991
662.197	10.26461
662.388	12.12394
662.579	9.96033
662.77	12.92606
662.96	16.91441
663.151	11.93574
663.342	4.60524
663.533	10.45191
663.724	9.31476
663.915	13.89541
664.106	8.81809
664.297	14.90534
664.488	11.77819
664.678	8.79315
664.869	11.67417
665.06	12.04924
665.251	10.7727
665.442	11.40288
665.632	7.68159
665.823	15.72833
666.014	2.58732
666.204	11.70771
666.395	13.44136
666.586	18.1639
666.776	12.51451
666.967	15.44672
667.158	10.01664
667.348	14.27145
667.539	7.08922
667.729	12.53916
667.92	8.08752
668.111	12.8694
668.301	11.55716
668.492	9.01249
668.682	9.84289
668.873	9.34375
669.063	7.67106
669.253	9.87408
669.444	13.02756
669.634	9.07955
669.825	15.10882
670.015	13.14804
670.206	7.8784
670.396	16.13077
670.586	10.39146
670.777	11.9061
670.967	4.32757
671.157	9.8038
671.347	8.74202
671.538	15.2798
671.728	12.30523
671.918	16.43792
672.108	13.72586
672.299	10.37291
672.489	12.01231
672.679	8.38488
672.869	11.8325
673.059	15.85142
673.249	12.92689
673.44	8.73803
673.63	10.62141
673.82	13.05787
674.01	7.99053
674.2	12.97585
674.39	20.5177
674.58	12.94302
674.77	11.02775
674.96	9.81406
675.15	24.41624
675.34	13.88977
675.53	11.29828
675.72	9.90065
675.91	6.64863
676.099	16.20717
676.289	18.03496
676.479	14.38465
676.669	10.10568
676.859	12.60212
677.049	8.5157
677.238	11.0728
677.428	16.81043
677.618	11.837
677.808	14.24216
677.997	12.68282
678.187	7.65856
678.377	10.57579
678.567	8.4104
678.756	9.25575
678.946	9.88736
679.136	6.84396
679.325	8.21783
679.515	7.89784
679.704	6.33825
679.894	12.42664
680.084	10.79318
680.273	13.66711
680.463	7.65106
680.652	7.45479
680.842	10.14626
681.031	13.38613
681.221	7.41697
681.41	11.86483
681.6	9.82364
681.789	12.60157
681.978	14.61395
682.168	11.96535
682.357	12.57568
682.547	12.93845
682.736	12.19506
682.925	15.77032
683.115	15.16253
683.304	14.38703
683.493	12.69401
683.682	13.20643
683.872	12.44966
684.061	16.05301
684.25	13.99677
684.439	18.39393
684.629	14.45875
684.818	23.09981
685.007	12.37918
685.196	10.59588
685.385	17.49939
685.574	14.08703
685.763	13.75742
685.952	12.5571
686.142	8.45977
686.331	17.94345
686.52	6.5289
686.709	17.45478
686.898	17.80704
687.087	15.04007
687.276	18.35545
687.465	15.88102
687.654	11.11667
687.842	18.13808
688.031	8.28151
688.22	17.53155
688.409	13.07237
688.598	13.378
688.787	21.99922
688.976	13.87945
689.165	19.19895
689.353	11.95552
689.542	15.35275
689.731	16.32694
689.92	20.94666
690.108	17.03286
690.297	12.57917
690.486	13.75081
690.675	16.0231
690.863	20.86803
691.052	20.57222
691.241	15.98138
691.429	14.97526
691.618	20.09819
691.806	8.93996
691.995	13.0908
692.184	13.86831
692.372	12.30524
692.561	14.38952
692.749	14.48859
692.938	23.97869
693.126	16.43279
693.315	13.27798
693.503	16.23589
693.692	17.38214
693.88	18.60092
694.068	23.71892
694.257	14.30407
694.445	16.04178
694.634	7.03191
694.822	18.52925
695.01	19.2515
695.199	20.69106
695.387	21.19182
695.575	19.68056
695.763	14.5624
695.952	13.59947
696.14	8.19557
696.328	13.17186
696.516	15.1039
696.705	15.47365
696.893	15.30609
697.081	8.16133
697.269	16.65691
697.457	9.54108
697.645	8.71289
697.833	15.96481
698.021	9.16535
698.21	10.46509
698.398	11.6939
698.586	7.67471
698.774	6.66555
698.962	10.99048
699.15	8.40482
699.338	7.02845
699.526	13.81641
699.714	9.93315
699.901	10.39401
700.089	16.53893
700.277	10.30519
700.465	12.8661
700.653	16.9281
700.841	16.05161
701.029	10.80352
701.217	19.0598
701.404	15.01712
701.592	20.87069
701.78	23.48304
701.968	13.65498
702.155	14.44712
702.343	9.81098
702.531	20.31786
702.718	17.16692
702.906	14.62567
703.094	12.84488
703.281	20.89572
703.469	15.26986
703.657	21.31809
703.844	31.01464
704.032	22.64567
704.219	13.20123
704.407	18.2441
704.595	22.88592
704.782	17.73316
704.97	14.78591
705.157	13.87697
705.345	23.7954
705.532	28.26806
705.719	18.81502
705.907	22.65978
706.094	16.60974
706.282	25.41545
706.469	15.27714
706.656	17.44687
706.844	15.3164
707.031	22.47386
707.218	17.84088
707.406	23.75302
707.593	21.62534
707.78	20.44228
707.968	16.75563
708.155	11.95211
708.342	19.37609
708.529	20.13632
708.716	18.70664
708.904	25.96757
709.091	20.90495
709.278	12.04314
709.465	24.68358
709.652	26.28046
709.839	24.04025
710.026	19.28021
710.213	9.77782
710.4	20.20954
710.587	21.94753
710.774	24.54232
710.961	23.89857
711.148	18.91262
711.335	24.39628
711.522	17.64695
711.709	19.63943
711.896	29.10056
712.083	22.88001
712.27	13.93674
712.457	19.63511
712.644	11.77291
712.831	28.69437
713.017	19.24168
713.204	21.7616
713.391	15.69959
713.578	24.81296
713.765	25.63119
713.951	21.72332
714.138	36.67824
714.325	21.91531
714.512	18.94582
714.698	15.98764
714.885	26.92811
715.072	21.67195
715.258	19.87421
715.445	16.70918
715.631	26.26288
715.818	7.18029
716.005	16.62633
716.191	22.39494
716.378	18.28788
716.564	24.30505
716.751	14.6104
716.937	17.44531
717.124	26.79422
717.31	17.05252
717.497	28.48252
717.683	16.42143
717.869	34.32809
718.056	17.94036
718.242	23.04497
718.429	20.93282
718.615	15.06976
718.801	21.21491
718.988	26.77126
719.174	24.41598
719.36	20.53607
719.547	28.51883
719.733	22.38875
719.919	23.96056
720.105	26.21195
720.291	20.46998
720.478	22.65801
720.664	19.56341
720.85	19.08788
721.036	39.75337
721.222	32.08763
721.408	21.36689
721.595	34.90517
721.781	33.37951
721.967	29.99318
722.153	32.72097
722.339	27.45383
722.525	25.32387
722.711	16.23757
722.897	15.17697
723.083	20.8513
723.269	29.51279
723.455	39.18653
723.641	43.03738
723.827	24.94509
724.012	27.63921
724.198	21.70493
724.384	30.53563
724.57	26.45303
724.756	14.78271
724.942	10.77592
725.127	29.34458
725.313	34.3197
725.499	31.43668
725.685	36.66179
725.87	26.06095
726.056	18.06868
726.242	32.46147
726.428	14.20752
726.613	29.46003
726.799	22.30622
726.985	16.877
727.17	13.95777
727.356	34.131
727.541	17.21863
727.727	22.80576
727.913	29.40618
728.098	20.59714
728.284	28.03311
728.469	15.17117
728.655	17.80251
728.84	28.64721
729.026	28.49294
729.211	30.02396
729.397	26.5138
729.582	28.02493
729.767	22.89763
729.953	25.77951
730.138	31.13974
730.323	10.75335
730.509	16.36704
730.694	34.41919
730.879	27.5959
731.065	26.05392
731.25	39.46879
731.435	27.61897
731.621	14.1205
731.806	20.33771
731.991	26.67521
732.176	13.26608
732.361	31.74649
732.547	26.31748
732.732	13.79843
732.917	39.49939
733.102	16.94096
733.287	19.32432
733.472	24.54434
733.657	25.55477
733.842	14.19947
734.027	23.07524
734.212	22.50328
734.397	19.92035
734.582	26.08343
734.767	31.12241
734.952	35.83317
735.137	7.9869
735.322	36.69381
735.507	28.17284
735.692	29.21657
735.877	43.12998
736.062	38.95441
736.247	27.71043
736.431	25.17722
736.616	35.63887
736.801	28.95112
736.986	26.64585
737.171	18.58201
737.355	15.29728
737.54	34.8062
737.725	23.85137
737.909	48.19991
738.094	21.37114
738.279	32.1984
738.463	24.22483
738.648	32.26399
738.833	30.16171
739.017	40.30955
739.202	24.25138
739.386	26.13541
739.571	20.01138
739.756	31.84114
739.94	25.12072
740.125	32.72574
740.309	23.17083
740.494	33.05613
740.678	27.70801
740.863	30.11053
741.047	29.27779
741.231	36.22807
741.416	21.86549
741.6	39.60751
741.785	21.79509
741.969	33.59165
742.153	37.13921
742.338	13.39564
742.522	26.81551
742.706	33.31701
742.89	18.08723
743.075	28.51717
743.259	38.8857
743.443	34.19671
743.627	36.65869
743.812	47.50724
743.996	10.29726
744.18	27.45356
744.364	23.92132
744.548	50.46513
744.732	27.11925
744.916	34.16509
745.1	32.44048
745.285	25.33415
745.469	33.63031
745.653	45.96182
745.837	17.45331
746.021	50.36093
746.205	39.54389
746.389	30.54291
746.573	26.75057
746.757	43.42713
746.94	23.15039
747.124	39.90608
747.308	18.19432
747.492	40.95569
747.676	24.81336
747.86	48.32407
748.044	25.17181
748.227	14.2454
748.411	61.85587
748.595	30.66434
748.779	21.70847
748.963	33.97419
749.146	30.48596
749.33	22.40833
749.514	20.19742
749.697	40.76296
749.881	24.04807
750.065	20.49575
750.248	29.93843
750.432	52.71285
750.616	28.71913
750.799	17.79242
750.983	47.67486
751.166	55.65792
751.35	17.52829
751.533	35.63463
751.717	39.58528
751.9	45.75425
752.084	24.89157
752.267	22.57166
752.451	23.27898
752.634	31.16875
752.818	34.4998
753.001	38.38221
753.184	40.6054
753.368	33.99033
753.551	1.88646
753.734	22.73524
753.918	49.58703
754.101	23.01322
754.284	37.26563
754.467	27.08145
754.651	23.54385
754.834	22.93775
755.017	41.00888
755.2	39.69417
755.384	21.45075
755.567	37.60165
755.75	41.67853
755.933	26.64134
756.116	32.02606
756.299	23.99435
756.482	24.42705
756.665	34.44488
756.848	30.11279
757.032	33.96913
757.215	18.93805
757.398	23.61451
757.581	21.9455
757.764	57.09048
757.947	32.24631
758.129	42.89915
758.312	6.22186
758.495	29.31099
758.678	30.8211
758.861	27.64095
759.044	50.81281
759.227	23.63434
759.41	23.68184
759.592	36.55239
759.775	29.98147
759.958	42.2774
760.141	18.32998
760.324	54.41293
760.506	44.8134
760.689	39.88948
760.872	55.24433
761.054	35.20676
761.237	28.51524
761.42	34.34567
761.602	39.52872
761.785	34.81748
761.968	40.60501
762.15	48.11602
762.333	27.65447
762.515	34.81136
762.698	24.79844
762.88	35.64801
763.063	31.16921
763.245	35.30453
763.428	20.98067
763.61	22.9081
763.793	17.13957
763.975	30.36375
764.158	24.05353
764.34	24.35956
764.522	19.64099
764.705	23.43895
764.887	41.51115
765.069	15.18749
765.252	37.65129
765.434	38.16026
765.616	29.69303
765.799	23.06891
765.981	38.16905
766.163	18.87666
766.345	39.68266
766.528	23.2777
766.71	7.21492
766.892	32.92278
767.074	41.69226
767.256	29.24108
767.438	49.71416
767.62	34.13363
767.802	54.29404
767.985	42.3872
768.167	54.75273
768.349	27.73292
768.531	40.40137
768.713	37.58627
768.895	43.18053
769.077	37.42492
769.259	59.83463
769.441	92.84487
769.623	47.79647
769.804	51.9427
769.986	52.99434
770.168	65.09656
770.35	78.11941
770.532	60.57969
770.714	61.95884
770.896	62.07991
771.077	22.93364
771.259	63.24028
771.441	52.49906
771.623	70.94406
771.804	90.58965
771.986	25.11006
772.168	43.011
772.35	66.38124
772.531	92.03137
772.713	51.48103
772.894	70.04259
773.076	50.49912
773.258	38.34028
773.439	70.08364
773.621	80.71176
773.802	30.23472
773.984	43.14837
774.166	57.92552
774.347	80.70625
774.529	69.77266
774.71	21.45173
774.891	44.47671
775.073	46.19986
775.254	78.90777
775.436	39.12194
775.617	86.43366
775.799	44.2203
775.98	79.43236
776.161	82.03225
776.343	81.94967
776.524	50.60146
776.705	49.93336
776.886	25.87494
777.068	60.59562
777.249	101.56842
777.43	88.08878
777.611	32.79997
777.793	45.48675
777.974	80.54863
778.155	45.19833
778.336	38.90498
778.517	90.47342
778.698	40.70206
778.879	20.05801
779.061	6.02052
779.242	63.99966
779.423	60.24103
779.604	50.96723
779.785	48.70338
779.966	59.43012
780.147	71.04753
780.328	73.05466
780.509	104.70961
780.69	70.85189
780.871	43.08172
781.051	25.6205
781.232	58.10557
781.413	59.48743
781.594	48.85019
781.775	45.02719
781.956	41.86575
782.137	19.76119
782.317	45.79997
782.498	63.08443
782.679	54.46741
782.86	55.48029
783.04	40.37143
783.221	57.13553
783.402	95.08009
783.583	56.47227
783.763	66.79775
783.944	45.6889
784.124	29.02472
784.305	85.81506
784.486	62.16835
784.666	53.36973
784.847	26.20216
785.027	103.63978
785.208	40.04171
785.388	43.65407
785.569	41.59383
785.749	48.95801
785.93	43.12354
786.11	27.16202
786.291	58.85439
786.471	57.11699
786.652	65.64629
786.832	47.20525
787.012	58.14518
787.193	29.23013
787.373	55.17234
787.553	45.19776
787.734	54.96362
787.914	45.06584
788.094	61.44606
788.275	55.48229
788.455	44.78936
788.635	28.46337
788.815	54.54965
788.995	34.87197
789.176	28.46502
789.356	36.6719
789.536	47.67808
789.716	63.30962
789.896	36.69721
790.076	43.59727
790.256	56.65463
790.436	14.71653
790.616	37.05143
790.796	57.13774
790.976	47.86423
791.156	43.49114
791.336	68.35685
791.516	59.65783
791.696	48.17977
791.876	26.93845
792.056	53.87211
792.236	66.22859
792.416	63.77318
792.596	59.17043
792.776	60.13876
792.956	63.05348
793.135	83.31001
793.315	31.66585
793.495	76.08052
793.675	64.52042
793.854	67.94023
794.034	70.97439
794.214	33.08817
794.394	63.57113
794.573	71.92902
794.753	55.43964
794.933	38.53214
795.112	55.72563
795.292	64.41746
795.472	83.49165
795.651	27.68578
795.831	53.50162
796.01	45.63824
796.19	47.62923
796.369	49.05787
796.549	62.18414
796.728	47.61345
796.908	28.11194
797.087	35.12881
797.267	49.37243
797.446	30.97407
797.626	57.29731
797.805	60.21019
797.984	36.96244
798.164	61.36162
798.343	37.2693
798.522	58.70476
798.702	53.34742
798.881	28.87303
799.06	46.16336
799.239	18.51653
799.419	31.67641
799.598	79.51277
799.777	60.94324
799.956	74.54818
800.136	47.35609
800.315	35.57006
800.494	60.93177
800.673	70.46801
800.852	63.198
801.031	70.46401
801.21	64.28442
801.389	41.80729
801.568	56.55762
801.747	88.27632
801.926	52.52616
802.105	80.75764
802.284	42.25943
802.463	79.62439
802.642	59.50768
802.821	55.9833
803	79.8303
803.179	70.81382
803.358	75.79479
803.537	38.21536
803.716	61.78916
803.895	41.53214
804.073	51.04205
804.252	44.57172
804.431	57.7487
804.61	46.74645
804.789	75.33871
804.967	45.82836
805.146	41.30784
805.325	92.91187
805.503	62.92679
805.682	29.01683
805.861	100.87461
806.039	74.97684
806.218	39.95134
806.397	59.53843
806.575	54.18072
806.754	57.40032
806.932	38.80872
807.111	83.2842
807.289	69.87702
807.468	56.04017
807.646	72.93628
807.825	62.25725
808.003	60.38412
808.182	72.32515
808.36	55.90701
808.539	39.48882
808.717	84.69805
808.895	42.17231
809.074	61.80071
809.252	49.6872
809.43	65.45762
809.609	81.8535
809.787	84.86176
809.965	52.24653
810.144	54.95433
810.322	48.7884
810.5	63.35346
810.678	52.52539
810.856	101.32829
811.035	77.56098
811.213	80.36608
811.391	83.23761
811.569	61.97062
811.747	115.32844
811.925	84.05474
812.103	41.31576
812.281	50.35374
812.459	97.94091
812.637	94.71293
812.816	74.0561
812.994	99.68305
813.171	78.60932
813.349	74.91256
813.527	87.21272
813.705	90.44764
813.883	107.09038
814.061	80.18775
814.239	101.03166
814.417	108.68486
814.595	71.03353
814.773	64.3908
814.95	60.20207
815.128	74.08151
815.306	58.00849
815.484	54.67045
815.662	44.84427
815.839	32.63765
816.017	45.9581
816.195	89.41396
816.372	53.35775
816.55	79.27362
816.728	89.878
816.905	56.5359
817.083	95.77384
817.261	57.65677
817.438	110.4595
817.616	100.08949
817.793	49.04168
817.971	76.01619
818.148	72.72265
818.326	91.19922
818.503	68.71392
818.681	89.33892
818.858	49.79768
819.036	60.71443
819.213	65.31992
819.391	45.5851
819.568	42.37455
819.745	37.87768
819.923	68.51545
820.1	44.93347
820.277	39.67728
820.455	46.03251
820.632	48.1239
820.809	49.01669
820.986	27.71236
821.164	23.42147
821.341	19.63572
821.518	28.19573
821.695	19.27947
821.872	16.5662
822.05	14.67615
822.227	9.72709
822.404	10.87579
822.581	14.02091
822.758	10.48562
822.935	10.66141
823.112	13.54784
823.289	9.63608
823.466	13.7918
823.643	12.84245
823.82	17.43549
823.997	15.21002
824.174	19.26895
824.351	29.49314
824.528	27.35405
824.705	23.28848
824.882	26.79157
825.059	37.15972
825.236	22.60057
825.412	24.74145
825.589	31.47026
825.766	47.29214
825.943	27.29959
826.12	32.0113
826.296	20.10706
826.473	27.28653
826.65	25.71965
826.827	34.30276
827.003	20.92075
827.18	23.31773
827.357	28.56917
827.533	24.39049
827.71	11.13104
827.887	20.70732
828.063	26.1251
828.24	21.23812
828.416	32.50882
828.593	26.63756
828.769	41.38297
828.946	48.70033
829.122	49.93624
829.299	51.67535
829.475	20.66663
829.652	43.70844
829.828	82.28608
830.005	50.50988
830.181	63.91491
830.357	44.24944
830.534	70.19463
830.71	51.32397
830.886	68.29416
831.063	63.22541
831.239	84.43049
831.415	38.06538
831.592	85.75037
831.768	51.8955
831.944	41.88312
832.12	83.05609
832.296	72.90808
832.473	65.14015
832.649	43.7276
832.825	63.1651
833.001	34.16067
833.177	51.64178
833.353	45.59844
833.529	24.67797
833.705	36.22571
833.881	25.29849
834.058	24.8728
834.234	27.98409
834.41	28.28319
834.586	21.62033
834.761	29.00462
834.937	32.22038
835.113	34.64205
835.289	31.16862
835.465	40.13235
835.641	34.74153
835.817	42.17262
835.993	74.05279
836.169	34.16392
836.344	50.94353
836.52	62.30589
836.696	64.30929
836.872	45.01622
837.048	133.54198
837.223	46.60463
837.399	102.88983
837.575	84.01
837.75	78.00804
837.926	106.15028
838.102	171.91148
838.277	125.42234
838.453	160.17957
838.628	154.73595
838.804	59.21408
838.98	153.13416
839.155	76.87514
839.331	102.52826
839.506	70.31487
839.682	72.76667
839.857	94.24211
840.033	105.01773
840.208	48.07747
840.384	22.00035
840.559	49.66943
840.734	82.20754
840.91	118.50366
841.085	72.1065
841.26	75.85947
841.436	71.14587
841.611	62.71788
841.786	106.13661
841.962	147.30009
842.137	89.00502
842.312	48.58255
842.487	76.84365
842.663	63.23862
842.838	79.614
843.013	235.53954
843.188	135.17442
843.363	109.12132
843.538	230.88157
843.714	214.84533
843.889	223.41496
844.064	236.25061
844.239	185.67208
844.414	278.71921
844.589	158.55955
844.764	251.44043
844.939	258.62413
845.114	294.97811
845.289	299.27373
845.464	376.36555
845.639	261.06264
845.814	127.03575
845.989	172.76901
846.163	197.83534
846.338	211.94516
846.513	301.47174
846.688	203.88981
846.863	224.38152
847.038	164.9597
847.212	182.61989
847.387	196.67947
847.562	206.76055
847.737	246.39215
847.911	109.56798
848.086	137.55394
848.261	342.83085
848.435	199.88468
848.61	299.61003
848.785	123.09571
848.959	270.70922
849.134	336.38077
849.308	416.25899
849.483	188.69583
849.658	316.55724
849.832	163.46922
850.007	163.93993
850.181	488.19419
850.356	170.9467
850.53	326.06324
850.705	150.34394
850.879	84.69454
851.053	197.90668
851.228	183.82236
851.402	248.06658
851.577	293.33016
851.751	377.26041
851.925	215.61798
852.099	88.739
852.274	145.80073
852.448	210.39714
852.622	270.98408
852.797	183.9609
852.971	227.1664
853.145	283.23462
853.319	451.06386
853.493	320.57997
853.668	204.99107
853.842	396.26561
854.016	318.33151
854.19	401.42161
854.364	228.21987
854.538	277.71837
854.712	292.54721
854.886	246.79597
855.06	205.96303
855.234	80.06828
855.408	358.13561
855.582	272.91726
855.756	323.02941
855.93	333.71962
856.104	265.70574
856.278	296.71449
856.452	226.00209
856.626	290.88337
856.8	430.26052
856.973	279.2258
857.147	310.95577
857.321	279.47413
857.495	289.77475
857.669	231.99628
857.842	210.37824
858.016	323.29139
858.19	144.17754
858.364	535.1646
858.537	200.99444
858.711	226.89195
858.885	206.30401
859.058	162.06818
859.232	107.78926
859.405	96.89121
859.579	286.01385
859.753	294.84992
859.926	161.76073
860.1	121.39012
860.273	243.20512
860.447	359.64782
860.62	184.34781
860.794	377.05146
860.967	223.681
861.141	335.07245
861.314	508.91856
861.487	232.33545
861.661	309.42174
861.834	392.65698
862.008	297.00521
862.181	231.55488
862.354	261.11637
862.528	283.35296
862.701	206.05385
862.874	143.46658
863.047	185.39575
863.221	197.49328
863.394	103.90866
863.567	307.38618
863.74	77.78888
863.913	311.7428
864.087	293.76976
864.26	297.36646
864.433	237.47213
864.606	398.91355
864.779	208.31413
864.952	105.2724
865.125	204.4727
865.298	207.95828
865.471	206.72008
865.644	361.93282
865.817	281.11247
865.99	317.73542
866.163	322.92303
866.336	199.58467
866.509	222.08574
866.682	195.02652
866.855	327.92648
867.028	115.12039
867.2	267.70524
867.373	73.87545
867.546	230.31723
867.719	414.86622
867.892	256.91146
868.064	144.60688
868.237	237.74967
868.41	210.33975
868.583	104.89824
868.755	129.48493
868.928	184.70367
869.101	399.68162
869.273	293.29599
869.446	243.90128
869.619	312.59155
869.791	218.45827
869.964	312.67366
870.136	289.13931
870.309	214.88866
870.481	238.91138
870.654	119.87823
870.826	234.73917
870.999	162.06904
871.171	262.92874
871.344	136.93058
871.516	179.07615
871.689	142.55778
871.861	234.38303
872.033	168.27029
872.206	176.7483
872.378	239.75347
872.55	210.7002
872.723	118.4536
872.895	215.34923
873.067	282.63628
873.24	252.46187
873.412	172.90359
873.584	192.76955
873.756	188.75155
873.928	235.61412
874.101	239.75546
874.273	227.85875
874.445	79.55208
874.617	140.31277
874.789	216.8861
874.961	158.88639
875.133	250.06373
875.305	208.50047
875.477	142.9971
875.649	121.57057
875.821	132.60675
875.993	329.24061
876.165	140.90448
876.337	217.92528
876.509	199.2382
876.681	221.30819
876.853	191.29487
877.025	201.8541
877.197	137.35148
877.369	127.75343
877.541	235.89771
877.712	59.08502
877.884	122.69407
878.056	202.66609
878.228	107.53975
878.4	233.74056
878.571	111.25662
878.743	78.82183
878.915	165.39648
879.086	100.09575
879.258	130.60491
879.43	110.67973
879.601	93.90281
879.773	100.00921
879.945	22.11888
880.116	37.16232
880.288	21.71279
880.459	24.3517
880.631	17.87006
880.802	21.56927
880.974	20.57894
881.145	13.28888
881.317	19.03401
881.488	12.65778
881.66	15.21268
881.831	13.82308
882.002	21.248
882.174	13.16709
882.345	20.87782
882.517	7.75899
882.688	27.59526
882.859	20.53789
883.03	37.59093
883.202	38.87753
883.373	30.99122
883.544	32.24534
883.715	56.72182
883.887	48.45363
884.058	40.54632
884.229	55.86501
884.4	58.67966
884.571	67.527
884.742	57.5356
884.914	63.76376
885.085	91.16761
885.256	137.2083
885.427	100.9857
885.598	117.86294
885.769	120.27646
885.94	112.79577
886.111	70.76333
886.282	134.02034
886.453	110.51972
886.624	83.10913
886.795	148.68922
886.966	126.9084
887.136	164.03436
887.307	111.0267
887.478	219.66308
887.649	180.45927
887.82	183.8863
887.991	157.64089
888.161	222.71397
888.332	202.11992
888.503	102.99592
888.674	269.95975
888.844	300.83709
889.015	241.19117
889.186	125.14408
889.356	267.44293
889.527	106.17572
889.698	390.28231
889.868	159.91492
890.039	218.5661
890.209	180.23467
890.38	245.03905
890.551	234.5974
890.721	324.56301
890.892	264.91224
891.062	187.91699
891.233	213.24819
891.403	193.37148
891.574	134.78912
891.744	158.62859
891.914	202.32447
892.085	170.59304
892.255	67.06671
892.425	280.66786
892.596	203.82112
892.766	209.10487
892.936	271.24017
893.107	204.54237
893.277	115.32155
893.447	86.32984
893.618	67.92566
893.788	128.54185
893.958	73.30726
894.128	62.64731
894.298	79.10112
894.468	99.0898
894.639	46.3309
894.809	30.67474
894.979	51.66351
895.149	60.80868
895.319	49.19544
895.489	77.33429
895.659	102.33055
895.829	65.42656
895.999	72.30391
896.169	60.51621
896.339	82.11284
896.509	161.50968
896.679	170.55977
896.849	179.34515
897.019	257.50889
897.189	193.79632
897.358	152.4863
897.528	264.52814
897.698	93.4267
897.868	216.98649
898.038	356.84653
898.208	395.16966
898.377	115.05931
898.547	352.24659
898.717	532.87964
898.886	231.16625
899.056	356.00345
899.226	515.93326
899.395	334.47324
899.565	513.87467
899.735	328.24232
899.904	565.25714
900.074	529.0105
900.244	183.66519
900.413	676.25637
900.583	183.3247
900.752	384.57249
900.922	578.71666
901.091	24.18346
901.261	428.85808
901.43	369.43745
901.599	418.19811
901.769	793.68525
901.938	398.78096
902.108	320.52701
902.277	462.08794
902.446	149.98931
902.616	171.06589
902.785	174.6185
902.954	343.78475
903.124	198.31586
903.293	144.68324
903.462	78.12078
903.631	113.18284
903.801	87.96801
903.97	41.23807
904.139	75.22132
904.308	58.82147
904.477	46.82499
904.646	29.55316
904.816	48.12269
904.985	76.22986
905.154	117.84296
