Data from WindowProjectSample_Transmission__75__00075.txt Node

Date: Sat May 03 17:59:14 EDT 2025
User: jessi
Spectrometer: SR400872
Trigger mode: 0
Integration Time (sec): 5.000010E-1
Scans to average: 6
Electric dark correction enabled: true
Nonlinearity correction enabled: true
Boxcar width: 0
XAxis mode: Wavelengths
Number of Pixels in Spectrum: 3648
>>>>>Begin Spectral Data<<<<<
184.909	3364.4444
185.132	4086.45244
185.355	-3939.28167
185.578	4314.20269
185.801	-376.93254
186.024	-5061.03039
186.247	1507.63154
186.47	559.58699
186.693	-32.26854
186.916	6572.5888
187.139	3238.13913
187.362	-1941.10989
187.585	5412.06209
187.808	29673.04083
188.031	97.66148
188.254	-4655.91572
188.476	795.48744
188.699	3199.79013
188.922	-212.57696
189.145	-6988.88099
189.368	-333.43728
189.591	-647.74835
189.813	-2919.01748
190.036	906.60142
190.259	-8357.57005
190.482	1285.52782
190.705	3889.4871
190.927	-1769.45491
191.15	-6521.32094
191.373	5923.66172
191.595	-1089.7642
191.818	2057.62382
192.041	-257.21321
192.263	1903.17318
192.486	-2382.16699
192.709	-22742.35678
192.931	1746.20055
193.154	-3671.29679
193.377	-2165.8967
193.599	4386.469
193.822	1564.95159
194.044	5618.79408
194.267	813.19128
194.489	-742.88768
194.712	2428.71577
194.934	8632.36677
195.157	-27587.89976
195.379	2096.64924
195.602	1646.77862
195.824	1446.14576
196.047	38430.26018
196.269	3188.24232
196.492	-1564.10676
196.714	-1227.811
196.936	1723.77821
197.159	-11752.96511
197.381	-373.53391
197.604	-3892.89785
197.826	-16387.14778
198.048	9628.4032
198.271	-8256.5217
198.493	4111.65444
198.715	3555.09004
198.938	-746.33926
199.16	-18275.43117
199.382	1183.56288
199.604	-1441.21124
199.827	-3493.84087
200.049	2168.42432
200.271	-6843.60422
200.493	-45436.76196
200.715	3799.41929
200.938	-2988.18467
201.16	-2653.03184
201.382	-1650.57912
201.604	-3322.91451
201.826	3390.27056
202.048	3416.85426
202.27	-1053.59447
202.492	-3288.02387
202.715	-1187.78295
202.937	-15982.32534
203.159	2551.22764
203.381	2036.082
203.603	-2879.81013
203.825	-702.52514
204.047	54703.93119
204.269	-1342.96332
204.491	-1174.98606
204.713	64410.87806
204.935	-3092.44134
205.156	-972.04529
205.378	-4197.37011
205.6	-1217.72572
205.822	2331.36447
206.044	-319.61964
206.266	6009.49924
206.488	875.86517
206.71	3332.04404
206.932	1622.36983
207.153	-1539.80378
207.375	-2667.47874
207.597	3724.14163
207.819	27288.73723
208.041	4008.02077
208.262	-1308.84044
208.484	-1074.54853
208.706	-1381.32512
208.927	2609.69963
209.149	4693.31533
209.371	-5104.67051
209.593	253.59748
209.814	-25495.42478
210.036	1998.09674
210.258	-753.6312
210.479	3742.32731
210.701	-3274.88061
210.922	-11649.27361
211.144	-750.07106
211.366	4851.87193
211.587	-1648.44381
211.809	-4903.32636
212.03	-902.56493
212.252	-515.24892
212.473	2989.96699
212.695	-755.6741
212.916	-799.19511
213.138	530.58123
213.359	-1343.89365
213.581	11644.55716
213.802	-1726.65232
214.024	-2344.77262
214.245	-6438.17813
214.466	-74.34957
214.688	-2828.44033
214.909	-19848.66235
215.131	-4725.76621
215.352	-2016.57361
215.573	11229.94585
215.795	1556.77857
216.016	6559.73642
216.237	-462.49902
216.459	5810.88305
216.68	-3551.89441
216.901	-2642.23495
217.122	-1782.99372
217.344	-6524.29771
217.565	-2766.52789
217.786	2159.49891
218.007	1518.86599
218.228	-639.11726
218.45	-4285.06607
218.671	1699.82738
218.892	3495.15628
219.113	1512.66724
219.334	546.42909
219.555	-6523.3892
219.776	10991.35227
219.997	3932.06161
220.219	1792.21175
220.44	1051.65118
220.661	906.29791
220.882	-2739.89489
221.103	-961.05082
221.324	2084.67304
221.545	3002.1216
221.766	-3436.10766
221.987	-476.6741
222.208	-10231.04634
222.429	169847.77244
222.65	-134.75729
222.87	-8992.16127
223.091	2771.50092
223.312	-1031.05123
223.533	2205.54918
223.754	2045.25949
223.975	2727.45977
224.196	-5323.01938
224.417	-2605.31991
224.637	6956.72725
224.858	1590.31589
225.079	1211.73586
225.3	1103.0445
225.521	4846.74453
225.741	878.04551
225.962	1092.68862
226.183	-472.81482
226.404	1404.51261
226.624	1073.06089
226.845	1592.64997
227.066	857.85492
227.286	534.78005
227.507	184.70604
227.728	179.54845
227.948	282.76326
228.169	92.92138
228.389	86.01944
228.61	45.94381
228.831	60.23004
229.051	5.20714
229.272	37.99774
229.492	49.00117
229.713	15.93288
229.933	37.42792
230.154	31.96962
230.374	53.63389
230.595	39.10755
230.815	27.32451
231.036	39.39366
231.256	-9.04535
231.477	71.46626
231.697	41.72612
231.917	41.95141
232.138	66.84361
232.358	126.65054
232.579	119.90116
232.799	20.15968
233.019	110.11827
233.24	132.69116
233.46	44.62614
233.68	77.35108
233.901	49.7648
234.121	31.93801
234.341	11.53127
234.561	-6.27284
234.782	26.17818
235.002	77.07304
235.222	-5.50255
235.442	68.81677
235.662	29.03774
235.883	75.16368
236.103	63.26615
236.323	49.884
236.543	35.56105
236.763	42.793
236.983	47.75864
237.203	50.10009
237.423	70.3606
237.643	101.7269
237.864	87.98051
238.084	25.48895
238.304	34.02563
238.524	53.04938
238.744	39.089
238.964	73.71265
239.184	63.246
239.404	70.66466
239.624	35.69313
239.843	66.91513
240.063	36.73582
240.283	23.13646
240.503	27.24963
240.723	27.78117
240.943	10.8656
241.163	21.38069
241.383	14.05255
241.603	8.03045
241.822	8.925
242.042	6.80104
242.262	8.09222
242.482	9.30608
242.702	11.7133
242.921	3.27332
243.141	7.99587
243.361	6.50871
243.581	9.9156
243.8	8.89318
244.02	5.61036
244.24	10.37759
244.459	10.30822
244.679	20.91911
244.899	13.50345
245.118	14.79122
245.338	12.27352
245.558	16.39808
245.777	9.35668
245.997	9.89195
246.216	10.49732
246.436	5.96498
246.655	4.33488
246.875	3.1848
247.094	6.4309
247.314	1.95853
247.533	3.74667
247.753	4.61509
247.972	3.75746
248.192	1.47313
248.411	1.86375
248.631	4.09475
248.85	4.75988
249.07	3.60934
249.289	6.75044
249.508	4.67336
249.728	8.20342
249.947	8.25787
250.166	8.51286
250.386	5.3338
250.605	8.07622
250.824	11.85607
251.044	8.80778
251.263	27.60637
251.482	14.0172
251.701	13.48713
251.921	-0.12172
252.14	4.17802
252.359	4.8879
252.578	10.95678
252.798	3.6639
253.017	9.28318
253.236	5.00709
253.455	6.67343
253.674	11.99848
253.893	5.51213
254.112	8.38687
254.331	12.65413
254.551	9.13327
254.77	4.9787
254.989	15.2434
255.208	13.90117
255.427	15.61213
255.646	13.24716
255.865	23.15647
256.084	8.84644
256.303	10.98456
256.522	14.83856
256.741	2.76106
256.96	3.67302
257.179	9.27584
257.397	11.91893
257.616	5.36395
257.835	6.53873
258.054	16.13523
258.273	9.95666
258.492	12.20132
258.711	7.46973
258.93	3.4961
259.148	4.23452
259.367	4.4834
259.586	5.92151
259.805	2.58883
260.023	5.28426
260.242	3.98018
260.461	2.98749
260.68	1.52971
260.898	4.63224
261.117	1.52684
261.336	1.09605
261.554	4.08752
261.773	3.98785
261.992	0.89626
262.21	4.09212
262.429	4.78289
262.648	7.55982
262.866	9.26156
263.085	5.57959
263.303	5.42495
263.522	9.74771
263.74	9.61465
263.959	15.96388
264.178	8.9611
264.396	7.43706
264.615	5.59629
264.833	12.8982
265.051	11.77776
265.27	10.84477
265.488	11.90899
265.707	7.732
265.925	11.68023
266.144	5.18454
266.362	6.90854
266.58	6.51888
266.799	5.27617
267.017	6.75254
267.235	5.88129
267.454	3.52977
267.672	2.48912
267.89	4.82759
268.109	4.94352
268.327	4.94154
268.545	1.31861
268.763	4.5527
268.982	1.78613
269.2	5.57136
269.418	3.45504
269.636	2.60992
269.854	4.28233
270.073	3.55767
270.291	1.88131
270.509	2.08389
270.727	4.80327
270.945	7.62124
271.163	8.13548
271.381	2.20422
271.599	3.16573
271.817	5.70047
272.036	1.89094
272.254	3.54599
272.472	2.77523
272.69	2.85234
272.908	2.90641
273.126	4.59893
273.344	5.51527
273.562	2.16369
273.779	2.73081
273.997	4.08658
274.215	4.49682
274.433	3.59067
274.651	4.97742
274.869	5.22432
275.087	3.36241
275.305	4.43078
275.523	2.61008
275.74	3.62926
275.958	5.98559
276.176	8.95657
276.394	2.32116
276.612	3.58208
276.829	3.54731
277.047	2.87813
277.265	3.43911
277.483	3.99942
277.7	4.78651
277.918	3.62599
278.136	6.92231
278.353	3.38168
278.571	2.05646
278.789	5.33843
279.006	1.26291
279.224	3.50754
279.442	5.67988
279.659	3.49917
279.877	2.78212
280.094	5.94958
280.312	1.38297
280.529	3.71631
280.747	1.24168
280.964	3.0766
281.182	6.24469
281.399	3.11458
281.617	4.21628
281.834	2.96094
282.052	2.45122
282.269	3.53944
282.487	2.86555
282.704	2.25994
282.921	2.52277
283.139	3.70216
283.356	4.62572
283.574	3.89107
283.791	2.06625
284.008	5.81806
284.226	3.04034
284.443	3.37683
284.66	4.63746
284.877	3.73983
285.095	2.4559
285.312	1.70726
285.529	1.223
285.746	0.97527
285.964	2.3
286.181	1.36023
286.398	2.19186
286.615	2.95843
286.832	2.8017
287.05	0.85526
287.267	1.85719
287.484	2.10399
287.701	2.98906
287.918	3.04772
288.135	2.97475
288.352	1.47243
288.569	1.59435
288.786	2.6336
289.003	2.07524
289.22	3.2943
289.437	2.08832
289.654	3.24512
289.871	3.37088
290.088	3.07544
290.305	2.4648
290.522	1.9749
290.739	2.42859
290.956	3.26966
291.173	4.14191
291.39	3.81257
291.607	2.63083
291.824	2.0468
292.04	1.11597
292.257	3.31339
292.474	3.66252
292.691	2.2595
292.908	1.14851
293.125	1.87822
293.341	1.05759
293.558	5.63867
293.775	2.30244
293.992	2.16094
294.208	0.83295
294.425	1.23393
294.642	1.9692
294.858	2.70609
295.075	0.78552
295.292	2.05045
295.508	2.68674
295.725	3.99608
295.942	2.03398
296.158	1.23789
296.375	2.29144
296.591	1.7333
296.808	1.96549
297.024	2.10635
297.241	2.37267
297.458	2.60706
297.674	0.22223
297.891	2.02719
298.107	1.46743
298.323	1.32341
298.54	2.94739
298.756	1.32708
298.973	0.5069
299.189	3.16922
299.406	1.23203
299.622	3.20153
299.838	3.18735
300.055	2.81063
300.271	0.84703
300.487	1.02438
300.704	1.10725
300.92	0.9142
301.136	4.16478
301.353	2.94058
301.569	2.28327
301.785	2.58467
302.001	3.05644
302.218	2.53721
302.434	2.39453
302.65	0.74407
302.866	1.67309
303.083	4.246
303.299	3.91467
303.515	1.91915
303.731	2.24517
303.947	0.71384
304.163	1.37937
304.379	2.33205
304.595	2.68083
304.812	1.58632
305.028	1.13545
305.244	1.93567
305.46	2.88881
305.676	2.97035
305.892	3.58108
306.108	2.24094
306.324	1.70141
306.54	4.13091
306.756	2.75064
306.972	2.70905
307.187	1.9899
307.403	3.79143
307.619	1.46773
307.835	3.35811
308.051	3.60623
308.267	0.7955
308.483	3.11459
308.699	2.73592
308.914	2.20891
309.13	1.86854
309.346	0.57137
309.562	1.04372
309.778	0.65156
309.993	2.61399
310.209	1.95505
310.425	0.78891
310.641	1.80086
310.856	0.8871
311.072	0.96366
311.288	1.79568
311.503	2.06378
311.719	0.41841
311.935	0.30287
312.15	2.46235
312.366	2.07309
312.581	2.58653
312.797	2.16018
313.013	2.65905
313.228	1.51522
313.444	2.22492
313.659	1.53723
313.875	2.59858
314.09	1.95051
314.306	3.22175
314.521	3.03631
314.737	2.86206
314.952	2.29212
315.168	1.83749
315.383	2.82048
315.599	1.64043
315.814	1.89601
316.029	2.843
316.245	0.74564
316.46	0.78012
316.675	3.2762
316.891	4.0785
317.106	4.9898
317.321	2.96727
317.537	2.6156
317.752	2.87504
317.967	2.87162
318.183	1.27849
318.398	1.84067
318.613	3.19751
318.828	3.41911
319.043	3.03669
319.259	1.52862
319.474	2.479
319.689	3.38036
319.904	0.44235
320.119	2.97284
320.334	2.72115
320.549	1.87041
320.765	3.25785
320.98	2.40572
321.195	3.13061
321.41	1.90896
321.625	2.83618
321.84	3.9868
322.055	4.14201
322.27	1.43842
322.485	1.15563
322.7	2.53462
322.915	3.33365
323.13	1.30315
323.345	3.69004
323.56	2.88216
323.775	2.93986
323.989	2.80651
324.204	2.32015
324.419	2.97928
324.634	0.95772
324.849	1.95097
325.064	4.4543
325.279	3.22636
325.493	2.97608
325.708	3.35566
325.923	1.29653
326.138	1.3444
326.352	3.86632
326.567	3.0236
326.782	1.75285
326.997	1.42283
327.211	2.65976
327.426	2.58623
327.641	1.62609
327.855	0.56784
328.07	2.76829
328.285	3.63941
328.499	1.95318
328.714	2.70353
328.928	3.23805
329.143	2.21078
329.358	3.18744
329.572	3.33217
329.787	3.59245
330.001	4.72626
330.216	0.80161
330.43	3.83335
330.645	3.8697
330.859	3.22418
331.074	1.57227
331.288	2.55014
331.503	3.50394
331.717	1.21981
331.931	2.1137
332.146	2.05516
332.36	4.01421
332.575	2.72881
332.789	2.28586
333.003	2.08175
333.218	2.79029
333.432	1.92571
333.646	2.80933
333.86	3.69839
334.075	4.02882
334.289	1.78446
334.503	1.60333
334.717	2.75788
334.932	2.80649
335.146	3.58617
335.36	2.13931
335.574	3.04261
335.788	2.55626
336.003	3.41876
336.217	2.77578
336.431	2.86572
336.645	1.59866
336.859	0.98761
337.073	1.92232
337.287	2.67475
337.501	1.15493
337.715	2.44021
337.929	2.75908
338.143	1.23332
338.357	2.27619
338.571	1.15091
338.785	2.74959
338.999	1.8097
339.213	2.01693
339.427	0.82022
339.641	3.18639
339.855	2.02005
340.069	1.8841
340.283	3.07377
340.497	3.97197
340.711	2.65461
340.924	1.71652
341.138	1.22262
341.352	1.01782
341.566	2.45821
341.78	0.52917
341.993	1.68323
342.207	1.20956
342.421	2.40115
342.635	2.21103
342.848	1.54543
343.062	0.16625
343.276	1.63311
343.49	4.37611
343.703	1.70364
343.917	2.97672
344.131	3.02987
344.344	1.6236
344.558	1.68236
344.771	1.35802
344.985	3.39702
345.199	3.79475
345.412	2.30133
345.626	2.38388
345.839	0.6647
346.053	1.15356
346.266	1.12246
346.48	2.92404
346.693	2.23907
346.907	2.65876
347.12	1.33309
347.334	2.43849
347.547	2.58571
347.76	1.90969
347.974	3.20232
348.187	2.16
348.401	1.72979
348.614	1.64715
348.827	1.66849
349.041	2.64879
349.254	0.66764
349.467	1.98471
349.681	0.87263
349.894	1.43095
350.107	3.23553
350.32	3.49947
350.534	0.6734
350.747	1.63676
350.96	1.26999
351.173	1.34424
351.386	1.84128
351.6	1.71389
351.813	1.38928
352.026	1.97558
352.239	0.80019
352.452	1.6058
352.665	2.76068
352.878	1.68061
353.092	4.15555
353.305	2.60274
353.518	2.16986
353.731	1.20344
353.944	3.10846
354.157	1.31803
354.37	1.06416
354.583	1.05246
354.796	0.51368
355.009	2.94288
355.222	1.98269
355.435	2.09177
355.647	2.87576
355.86	1.04538
356.073	1.92613
356.286	1.41007
356.499	2.66204
356.712	1.96935
356.925	2.17942
357.138	2.64725
357.35	0.91965
357.563	1.59141
357.776	1.86187
357.989	1.53922
358.201	2.3113
358.414	1.7595
358.627	2.66852
358.84	1.65552
359.052	1.03876
359.265	0.93901
359.478	2.6867
359.69	-0.49203
359.903	2.1698
360.116	2.48048
360.328	0.39021
360.541	2.49088
360.753	0.78921
360.966	1.20568
361.179	1.32878
361.391	1.25219
361.604	0.87547
361.816	1.18014
362.029	1.04234
362.241	0.94345
362.454	1.20069
362.666	0.81606
362.879	1.52609
363.091	1.2835
363.304	0.94992
363.516	1.53883
363.728	0.5377
363.941	2.11545
364.153	1.14433
364.366	0.08274
364.578	0.82275
364.79	1.88877
365.003	1.58507
365.215	1.38293
365.427	1.97952
365.639	2.63459
365.852	1.83446
366.064	3.2606
366.276	1.16588
366.488	2.07609
366.701	1.20517
366.913	1.40746
367.125	1.47099
367.337	1.13825
367.549	1.30879
367.762	1.71644
367.974	1.72611
368.186	1.08042
368.398	2.46969
368.61	2.10365
368.822	2.05169
369.034	1.65396
369.246	2.40355
369.458	3.51805
369.67	0.79164
369.882	3.11006
370.094	0.02074
370.306	3.06991
370.518	1.27088
370.73	0.92237
370.942	1.11611
371.154	1.48706
371.366	1.12122
371.578	1.861
371.79	0.9724
372.002	2.63657
372.214	2.97532
372.425	1.78509
372.637	2.7498
372.849	1.63747
373.061	-0.15647
373.273	1.96464
373.484	2.21986
373.696	2.24832
373.908	-0.02981
374.12	2.50165
374.331	2.15586
374.543	0.94362
374.755	0.87103
374.967	1.80004
375.178	2.48663
375.39	1.50501
375.602	1.87567
375.813	0.6815
376.025	0.7122
376.236	1.61297
376.448	1.88234
376.66	1.28663
376.871	1.42698
377.083	2.37588
377.294	2.64821
377.506	1.35483
377.717	2.58959
377.929	1.82977
378.14	1.03655
378.352	2.18252
378.563	2.0397
378.775	2.63313
378.986	0.97871
379.197	1.81082
379.409	1.24211
379.62	2.36024
379.832	1.9314
380.043	1.48727
380.254	1.90388
380.466	0.84234
380.677	3.72809
380.888	3.24087
381.1	3.77489
381.311	3.7159
381.522	1.84165
381.733	3.94707
381.945	1.46308
382.156	1.72329
382.367	1.51088
382.578	4.07411
382.789	4.02582
383.001	1.51195
383.212	2.82689
383.423	3.12086
383.634	2.59384
383.845	2.15828
384.056	1.46203
384.267	1.84699
384.478	1.71481
384.69	0.92388
384.901	2.18618
385.112	2.09614
385.323	2.91717
385.534	2.16258
385.745	2.24471
385.956	2.13852
386.167	1.05108
386.378	2.20527
386.588	1.19499
386.799	1.14667
387.01	0.69435
387.221	2.57413
387.432	1.99793
387.643	3.44382
387.854	1.69423
388.065	1.73113
388.275	1.76825
388.486	1.49034
388.697	1.98608
388.908	1.67503
389.119	2.92187
389.329	3.17069
389.54	1.94376
389.751	2.34897
389.962	2.88535
390.172	2.09709
390.383	1.70223
390.594	1.53906
390.804	1.36031
391.015	1.68635
391.226	2.08769
391.436	2.57084
391.647	2.40571
391.858	2.42998
392.068	0.88829
392.279	1.3932
392.489	2.28557
392.7	2.82219
392.91	1.47285
393.121	1.60877
393.331	2.44115
393.542	2.87423
393.752	2.72855
393.963	2.4878
394.173	2.39035
394.384	2.68649
394.594	2.20992
394.804	1.39033
395.015	2.13034
395.225	2.66023
395.436	1.50502
395.646	2.62884
395.856	1.96597
396.067	1.24069
396.277	2.95408
396.487	2.58261
396.697	2.38842
396.908	2.932
397.118	2.69398
397.328	2.43536
397.538	2.93278
397.749	1.99388
397.959	2.99977
398.169	2.78544
398.379	1.37361
398.589	2.61414
398.8	2.5759
399.01	2.51591
399.22	2.16426
399.43	4.01468
399.64	2.23343
399.85	2.7831
400.06	2.36599
400.27	1.87899
400.48	2.32499
400.69	3.456
400.9	2.10439
401.11	1.91771
401.32	2.9986
401.53	2.13286
401.74	3.51639
401.95	2.77944
402.16	2.04212
402.37	2.82841
402.58	2.06289
402.79	3.04575
403	3.02719
403.209	2.00155
403.419	3.13869
403.629	1.99389
403.839	3.18524
404.049	3.23012
404.258	2.09248
404.468	2.16255
404.678	3.11427
404.888	3.38443
405.097	2.55672
405.307	2.53695
405.517	2.95984
405.727	3.06372
405.936	2.40049
406.146	2.96674
406.356	3.49802
406.565	2.59229
406.775	2.27762
406.984	2.30982
407.194	4.2167
407.404	2.74414
407.613	2.94181
407.823	3.39642
408.032	3.71817
408.242	3.35874
408.451	2.49959
408.661	2.80725
408.87	4.10458
409.08	2.21747
409.289	3.03132
409.499	2.77419
409.708	2.76425
409.918	1.32996
410.127	3.00733
410.336	3.96607
410.546	3.37844
410.755	2.48572
410.964	2.54687
411.174	2.14224
411.383	3.17211
411.592	3.02873
411.802	2.20811
412.011	3.27828
412.22	2.76066
412.429	3.71348
412.639	3.81594
412.848	3.70292
413.057	4.16161
413.266	3.64396
413.475	2.96142
413.685	3.20135
413.894	3.4905
414.103	3.66422
414.312	3.42515
414.521	2.85286
414.73	3.14816
414.939	4.39393
415.148	3.25159
415.357	3.23649
415.566	3.02175
415.776	2.76368
415.985	2.75823
416.194	3.68136
416.403	4.36159
416.611	2.25882
416.82	2.83042
417.029	3.2399
417.238	2.65821
417.447	2.60429
417.656	3.05207
417.865	2.82151
418.074	3.25315
418.283	3.43242
418.492	4.47348
418.7	4.28153
418.909	5.46209
419.118	4.07783
419.327	4.60433
419.536	4.32738
419.744	4.07908
419.953	5.474
420.162	5.45804
420.371	4.36213
420.579	4.64508
420.788	5.70821
420.997	5.77167
421.205	5.72341
421.414	5.48848
421.623	5.69261
421.831	5.2112
422.04	5.85496
422.249	4.92248
422.457	5.46515
422.666	4.77292
422.874	5.86275
423.083	5.88173
423.291	5.6413
423.5	5.40298
423.708	5.66926
423.917	6.30582
424.125	5.50822
424.334	5.25407
424.542	7.36134
424.751	6.55852
424.959	6.0477
425.167	6.62615
425.376	6.3627
425.584	5.50603
425.793	5.64526
426.001	4.47697
426.209	5.24258
426.418	4.13609
426.626	3.82067
426.834	3.64587
427.042	3.89823
427.251	3.36783
427.459	4.21641
427.667	3.75669
427.875	2.90731
428.084	3.39672
428.292	4.49837
428.5	4.01281
428.708	2.9722
428.916	3.11249
429.124	3.69447
429.333	3.45178
429.541	3.51121
429.749	3.70051
429.957	3.54709
430.165	5.20574
430.373	2.74364
430.581	3.70672
430.789	4.54952
430.997	3.45151
431.205	3.19509
431.413	3.85609
431.621	3.41815
431.829	4.08513
432.037	3.55223
432.245	3.89699
432.453	4.08185
432.661	3.77864
432.869	5.28877
433.076	3.64292
433.284	3.98884
433.492	4.76647
433.7	5.08797
433.908	4.14482
434.116	4.34564
434.323	4.24188
434.531	4.21361
434.739	4.38963
434.947	4.36557
435.154	4.54335
435.362	3.88986
435.57	3.68719
435.778	3.46686
435.985	4.08633
436.193	3.52047
436.401	4.70473
436.608	3.911
436.816	3.71677
437.023	4.81854
437.231	5.04586
437.439	4.05789
437.646	4.22579
437.854	4.25193
438.061	4.43624
438.269	4.05015
438.476	4.47112
438.684	4.35676
438.891	4.23625
439.099	4.14337
439.306	3.84051
439.514	4.01889
439.721	5.30514
439.929	4.4643
440.136	5.56485
440.343	5.42442
440.551	5.09467
440.758	7.0304
440.965	5.76944
441.173	5.46113
441.38	4.94255
441.587	5.27781
441.795	4.85294
442.002	4.81424
442.209	4.83277
442.416	4.72726
442.624	4.73248
442.831	4.55992
443.038	3.81927
443.245	3.71017
443.452	3.88095
443.66	4.61341
443.867	3.87068
444.074	3.7514
444.281	4.00685
444.488	4.33124
444.695	4.72549
444.902	4.44425
445.109	5.62699
445.316	5.15886
445.523	5.2517
445.73	5.0999
445.937	5.97452
446.144	6.43936
446.351	6.757
446.558	5.56447
446.765	7.37764
446.972	6.89861
447.179	6.2457
447.386	7.16007
447.593	5.73559
447.8	6.75958
448.007	5.54962
448.214	5.1431
448.42	4.6409
448.627	5.42653
448.834	4.57013
449.041	4.37312
449.248	4.13382
449.454	4.74399
449.661	5.08172
449.868	3.89661
450.075	3.71984
450.281	3.15761
450.488	3.51381
450.695	3.59668
450.901	3.60759
451.108	3.74412
451.315	4.88781
451.521	3.92195
451.728	4.78846
451.935	3.78729
452.141	4.01512
452.348	4.08223
452.554	4.12168
452.761	3.84557
452.967	5.26574
453.174	4.30074
453.38	4.22956
453.587	3.42415
453.793	4.31638
454	4.60549
454.206	5.36878
454.413	4.69931
454.619	4.43096
454.825	3.88973
455.032	4.56896
455.238	4.7025
455.445	3.40379
455.651	4.35125
455.857	3.09301
456.064	4.09924
456.27	4.08024
456.476	3.84041
456.682	3.22378
456.889	4.2363
457.095	4.47573
457.301	5.48159
457.507	4.30721
457.714	4.24166
457.92	4.25009
458.126	3.76307
458.332	4.17684
458.538	4.127
458.744	4.70812
458.951	4.74667
459.157	6.61769
459.363	5.80386
459.569	5.9607
459.775	6.63271
459.981	5.88924
460.187	6.40815
460.393	6.63808
460.599	7.15389
460.805	6.12737
461.011	5.50814
461.217	5.73482
461.423	5.28578
461.629	4.52881
461.835	4.72918
462.041	4.31733
462.247	5.32829
462.453	4.25262
462.658	4.20861
462.864	4.86496
463.07	4.59502
463.276	4.39549
463.482	4.49124
463.688	5.35872
463.893	3.90292
464.099	4.16065
464.305	5.32585
464.511	3.94123
464.716	4.27345
464.922	4.88974
465.128	3.72399
465.333	5.17779
465.539	4.814
465.745	4.54249
465.95	4.58768
466.156	6.3007
466.362	5.14135
466.567	4.40359
466.773	4.31394
466.978	5.40602
467.184	3.90483
467.389	3.34883
467.595	4.66069
467.8	3.98044
468.006	5.26657
468.211	5.29424
468.417	3.7914
468.622	4.86078
468.828	4.77502
469.033	4.71678
469.239	6.2532
469.444	4.15663
469.649	5.06915
469.855	4.3818
470.06	4.63916
470.266	3.76902
470.471	4.91336
470.676	4.72795
470.881	3.33635
471.087	5.44897
471.292	5.80338
471.497	3.68645
471.703	4.37843
471.908	4.21918
472.113	4.64256
472.318	5.15561
472.523	3.99566
472.729	4.7854
472.934	4.91883
473.139	4.44011
473.344	4.94392
473.549	5.47974
473.754	4.31289
473.959	6.1431
474.164	4.24409
474.369	4.52996
474.575	5.00184
474.78	4.67351
474.985	4.28909
475.19	3.46238
475.395	4.18536
475.6	4.33001
475.804	5.42472
476.009	4.66138
476.214	4.57948
476.419	4.24504
476.624	3.75747
476.829	4.21493
477.034	5.02803
477.239	4.34764
477.444	4.71033
477.648	4.91462
477.853	5.08515
478.058	4.41271
478.263	4.27156
478.468	4.19095
478.672	4.36609
478.877	5.63604
479.082	5.78922
479.287	4.92608
479.491	4.69899
479.696	4.09597
479.901	5.25795
480.105	5.03154
480.31	4.31595
480.515	4.82946
480.719	6.17544
480.924	4.72004
481.128	4.50972
481.333	5.49401
481.538	5.69297
481.742	5.6008
481.947	6.7818
482.151	7.31577
482.356	7.53201
482.56	9.29652
482.765	10.09941
482.969	12.4942
483.174	13.89083
483.378	16.52591
483.582	16.78476
483.787	18.13089
483.991	18.09594
484.196	18.50509
484.4	18.14683
484.604	18.35695
484.809	16.26475
485.013	15.67614
485.217	13.95845
485.422	12.04108
485.626	11.13995
485.83	10.54877
486.034	10.15871
486.239	10.43335
486.443	10.66779
486.647	10.77153
486.851	11.80649
487.055	12.90855
487.26	12.57252
487.464	13.23764
487.668	12.55418
487.872	12.85944
488.076	13.48521
488.28	12.68941
488.484	11.61988
488.688	11.40844
488.892	10.84699
489.096	10.15439
489.3	9.25826
489.504	8.68811
489.708	8.501
489.912	8.37488
490.116	8.17074
490.32	7.57107
490.524	8.58413
490.728	9.33006
490.932	9.52423
491.136	10.03231
491.34	11.08962
491.544	11.71284
491.748	11.36612
491.951	11.14934
492.155	10.88655
492.359	10.71015
492.563	9.16556
492.767	8.81963
492.97	7.8267
493.174	6.85302
493.378	6.57288
493.582	5.46105
493.785	5.44577
493.989	5.45844
494.193	5.16278
494.396	4.61195
494.6	5.17783
494.804	4.50574
495.007	4.33376
495.211	4.47699
495.414	4.66524
495.618	5.08842
495.822	5.63103
496.025	5.1306
496.229	5.76806
496.432	5.13947
496.636	5.46575
496.839	5.75126
497.043	6.60376
497.246	5.80513
497.45	5.39064
497.653	5.75958
497.856	5.53883
498.06	5.05926
498.263	5.09666
498.467	4.97123
498.67	5.58814
498.873	5.04713
499.077	4.93296
499.28	4.84245
499.483	5.07605
499.686	5.5739
499.89	4.96545
500.093	5.55823
500.296	4.50283
500.499	5.92965
500.703	4.88372
500.906	5.09652
501.109	5.99411
501.312	5.03625
501.515	4.79939
501.719	5.33464
501.922	5.55041
502.125	5.11333
502.328	4.8372
502.531	4.32164
502.734	5.08112
502.937	4.0041
503.14	5.0343
503.343	4.48298
503.546	4.88699
503.749	4.59057
503.952	5.24916
504.155	4.40599
504.358	5.24415
504.561	5.07234
504.764	4.36632
504.967	5.01755
505.17	4.97979
505.373	5.87664
505.576	4.86654
505.778	5.34511
505.981	4.59054
506.184	5.71817
506.387	4.00908
506.59	6.16406
506.793	5.76278
506.995	5.23817
507.198	3.87245
507.401	5.21685
507.604	5.23977
507.806	4.45241
508.009	4.62055
508.212	5.4968
508.414	4.72999
508.617	4.67954
508.82	4.9517
509.022	5.84745
509.225	5.38138
509.427	4.21541
509.63	5.70477
509.833	5.17795
510.035	4.79556
510.238	4.14242
510.44	5.80942
510.643	3.94847
510.845	6.23166
511.048	5.2656
511.25	4.59987
511.453	4.92899
511.655	5.24507
511.858	4.91339
512.06	5.50152
512.262	5.09156
512.465	5.67472
512.667	4.91745
512.869	4.3953
513.072	5.37047
513.274	5.52028
513.476	5.42793
513.679	5.52179
513.881	4.43436
514.083	5.95081
514.286	4.54883
514.488	4.69037
514.69	4.56172
514.892	4.18715
515.094	5.47111
515.297	4.62605
515.499	5.01492
515.701	4.73001
515.903	6.20162
516.105	6.05553
516.307	5.3359
516.509	4.06826
516.711	4.56763
516.913	5.11936
517.116	5.08092
517.318	4.86076
517.52	5.88401
517.722	5.80673
517.924	5.19087
518.126	6.29075
518.328	5.72913
518.529	6.49721
518.731	7.37725
518.933	5.79682
519.135	5.96955
519.337	6.67765
519.539	6.12199
519.741	4.49088
519.943	5.08381
520.145	4.87042
520.346	5.5354
520.548	4.98809
520.75	5.20131
520.952	4.88464
521.153	5.32887
521.355	5.41977
521.557	4.60428
521.759	5.15874
521.96	5.00597
522.162	4.5663
522.364	5.62077
522.565	4.75551
522.767	5.54706
522.969	5.81978
523.17	5.44363
523.372	5.24674
523.573	4.8603
523.775	5.04548
523.977	4.46372
524.178	5.95127
524.38	4.8122
524.581	5.65352
524.783	5.31855
524.984	6.29848
525.186	5.94012
525.387	6.72295
525.589	6.47997
525.79	6.39867
525.991	6.20895
526.193	7.09461
526.394	6.10595
526.596	7.24452
526.797	7.51962
526.998	7.21195
527.2	7.20575
527.401	9.13412
527.602	9.79993
527.803	12.04498
528.005	12.45146
528.206	13.46059
528.407	14.27111
528.608	14.00619
528.81	14.38123
529.011	13.50338
529.212	14.52489
529.413	13.25318
529.614	12.25096
529.815	11.76609
530.017	10.66875
530.218	9.29496
530.419	8.1944
530.62	7.89467
530.821	7.50215
531.022	6.28232
531.223	7.24333
531.424	7.20506
531.625	7.29719
531.826	7.0826
532.027	7.40249
532.228	8.81929
532.429	8.54147
532.63	8.63236
532.831	9.50591
533.032	9.28303
533.233	10.30347
533.433	9.9565
533.634	10.14292
533.835	9.33655
534.036	8.74284
534.237	8.36757
534.438	7.86212
534.638	6.67167
534.839	6.62695
535.04	6.59625
535.241	5.94648
535.441	7.36739
535.642	6.70843
535.843	5.90574
536.043	6.19043
536.244	6.38071
536.445	6.58201
536.645	7.50113
536.846	7.15158
537.047	7.61717
537.247	6.20986
537.448	6.2068
537.648	6.13099
537.849	5.57778
538.049	5.36717
538.25	5.67217
538.451	5.67271
538.651	5.00784
538.851	5.59196
539.052	6.13643
539.252	6.08147
539.453	5.3032
539.653	5.72291
539.854	5.84811
540.054	6.64131
540.254	7.98964
540.455	8.77975
540.655	8.46729
540.855	9.70033
541.056	10.77058
541.256	10.16412
541.456	11.41892
541.657	10.45646
541.857	11.51408
542.057	9.82088
542.257	9.21844
542.458	9.82952
542.658	9.42526
542.858	7.80678
543.058	8.44177
543.258	7.69494
543.458	6.14946
543.659	5.8013
543.859	6.69567
544.059	6.70565
544.259	5.70929
544.459	6.23333
544.659	5.28448
544.859	5.81053
545.059	5.08235
545.259	5.76923
545.459	5.3486
545.659	6.06708
545.859	5.48873
546.059	5.71751
546.259	5.1792
546.459	5.05585
546.659	4.98383
546.859	6.08604
547.059	5.66511
547.258	5.68198
547.458	5.69555
547.658	4.87036
547.858	4.62826
548.058	5.53179
548.258	5.20795
548.457	4.71266
548.657	6.89903
548.857	5.19757
549.057	5.77928
549.256	5.77206
549.456	4.84364
549.656	3.97035
549.855	6.58003
550.055	4.80881
550.255	6.66747
550.454	5.65619
550.654	5.82627
550.853	6.24216
551.053	5.96166
551.253	5.49744
551.452	5.56545
551.652	4.66029
551.851	4.32635
552.051	5.06276
552.25	4.98037
552.45	4.75955
552.649	5.23892
552.849	4.52993
553.048	5.21069
553.248	5.63962
553.447	4.69341
553.646	5.84334
553.846	6.53585
554.045	5.97775
554.244	4.37289
554.444	6.61263
554.643	4.69861
554.842	6.39251
555.042	6.85192
555.241	4.74537
555.44	4.68276
555.64	5.63567
555.839	6.77222
556.038	5.79781
556.237	4.81457
556.436	5.36568
556.636	5.80223
556.835	4.86656
557.034	6.67875
557.233	5.25143
557.432	4.4953
557.631	6.21749
557.83	5.27154
558.029	5.03716
558.228	4.93511
558.427	4.70898
558.626	5.52025
558.825	4.73188
559.024	5.46001
559.223	7.03412
559.422	5.24631
559.621	5.66442
559.82	3.42581
560.019	5.29741
560.218	5.31242
560.417	3.02158
560.616	4.91409
560.815	7.79718
561.014	4.31808
561.212	6.57137
561.411	5.56265
561.61	4.04477
561.809	4.87082
562.008	6.2291
562.206	5.0538
562.405	5.83972
562.604	5.15051
562.803	5.33195
563.001	4.98308
563.2	4.19683
563.399	5.73077
563.597	4.14707
563.796	5.27631
563.995	4.34297
564.193	5.81973
564.392	4.9879
564.59	7.27367
564.789	3.84833
564.988	4.83238
565.186	5.3589
565.385	4.91273
565.583	4.88624
565.782	5.12814
565.98	5.10044
566.179	5.16276
566.377	4.37423
566.575	4.58134
566.774	6.134
566.972	5.99603
567.171	6.84102
567.369	6.14434
567.567	5.14088
567.766	5.65164
567.964	3.76845
568.162	5.58389
568.361	5.99049
568.559	5.04468
568.757	5.52537
568.956	5.18096
569.154	5.2187
569.352	5.68045
569.55	5.25055
569.748	5.22252
569.947	4.64456
570.145	4.34456
570.343	4.35571
570.541	6.03388
570.739	4.29126
570.937	5.1555
571.135	5.63591
571.333	6.61366
571.532	6.67586
571.73	5.49391
571.928	5.98132
572.126	5.46314
572.324	4.78725
572.522	6.24415
572.72	7.34637
572.918	5.30856
573.116	5.65465
573.313	5.24289
573.511	5.30667
573.709	4.77873
573.907	5.84004
574.105	4.87252
574.303	3.8558
574.501	3.95043
574.699	5.4486
574.896	5.54448
575.094	5.69654
575.292	4.16163
575.49	5.98158
575.688	5.04496
575.885	6.2165
576.083	6.99067
576.281	5.87403
576.478	4.46766
576.676	5.62458
576.874	4.11672
577.071	4.88899
577.269	7.22419
577.467	5.15634
577.664	5.15404
577.862	6.17425
578.059	4.37304
578.257	6.00408
578.455	5.01045
578.652	5.29132
578.85	3.56215
579.047	5.46453
579.245	4.98255
579.442	4.9823
579.64	5.24454
579.837	3.66874
580.034	7.72666
580.232	5.16254
580.429	4.08607
580.627	5.81653
580.824	6.67108
581.021	5.62896
581.219	4.95244
581.416	4.50801
581.613	6.72029
581.811	6.75884
582.008	4.57329
582.205	5.97683
582.402	5.7087
582.6	7.37482
582.797	5.48715
582.994	5.52581
583.191	5.88416
583.388	5.3519
583.586	6.06612
583.783	6.19078
583.98	4.71748
584.177	5.46092
584.374	2.67664
584.571	5.33683
584.768	5.04438
584.965	4.67677
585.162	6.2267
585.359	6.99201
585.556	5.31052
585.753	5.61616
585.95	4.08737
586.147	4.87715
586.344	5.85277
586.541	5.12751
586.738	4.06873
586.935	5.43933
587.132	4.59802
587.329	6.61093
587.526	5.24559
587.722	10.20213
587.919	4.05011
588.116	5.61694
588.313	6.68401
588.51	7.76917
588.706	4.94322
588.903	5.90546
589.1	6.09618
589.297	7.93647
589.493	5.42383
589.69	5.75648
589.887	4.87945
590.083	4.32178
590.28	4.74158
590.477	6.07967
590.673	6.21788
590.87	6.78638
591.067	5.35322
591.263	5.78276
591.46	5.5747
591.656	5.11712
591.853	6.56257
592.049	4.59636
592.246	4.81698
592.442	6.67112
592.639	6.55958
592.835	4.53914
593.032	5.85804
593.228	3.97097
593.425	3.76122
593.621	3.72995
593.817	5.77548
594.014	4.64843
594.21	5.36703
594.406	6.33156
594.603	5.65955
594.799	4.83952
594.995	3.0582
595.192	6.54384
595.388	4.88763
595.584	4.92788
595.78	4.02519
595.977	7.56584
596.173	6.70276
596.369	5.12048
596.565	4.16238
596.761	3.87517
596.957	6.53503
597.154	4.56444
597.35	4.81068
597.546	4.61155
597.742	5.89497
597.938	5.33705
598.134	4.615
598.33	5.44807
598.526	6.93526
598.722	5.88721
598.918	7.3879
599.114	5.79046
599.31	4.63415
599.506	5.41821
599.702	4.77914
599.898	5.68163
600.094	6.32796
600.29	6.16024
600.485	6.26545
600.681	4.90458
600.877	7.49558
601.073	5.46684
601.269	7.84056
601.465	6.74272
601.66	4.24716
601.856	3.49446
602.052	7.19519
602.248	4.99746
602.443	3.53455
602.639	4.23603
602.835	4.6521
603.03	4.4938
603.226	6.33779
603.422	4.28881
603.617	4.84767
603.813	4.86329
604.009	4.98065
604.204	6.22305
604.4	3.9639
604.595	6.14736
604.791	4.15946
604.986	5.5488
605.182	4.47655
605.377	4.89322
605.573	4.72982
605.768	5.42656
605.964	5.90462
606.159	5.96241
606.355	6.2915
606.55	4.89782
606.746	6.8624
606.941	5.05561
607.136	7.63455
607.332	9.04875
607.527	4.01629
607.722	5.81594
607.918	5.35865
608.113	4.60312
608.308	6.22906
608.503	5.6319
608.699	5.7789
608.894	6.07135
609.089	4.57205
609.284	5.66431
609.479	5.00922
609.675	6.10097
609.87	4.86169
610.065	6.08828
610.26	6.38388
610.455	6.21713
610.65	5.21936
610.845	5.26106
611.04	6.61613
611.235	5.02465
611.43	5.13134
611.625	3.91066
611.82	7.10416
612.015	4.60728
612.21	7.25581
612.405	3.92027
612.6	7.95604
612.795	7.43503
612.99	6.44168
613.185	4.36941
613.38	4.79368
613.575	5.48031
613.77	9.22232
613.965	3.89791
614.159	4.43565
614.354	7.33401
614.549	7.04502
614.744	6.51792
614.938	4.53417
615.133	4.13437
615.328	7.42282
615.523	7.10604
615.717	9.48306
615.912	5.02614
616.107	6.14113
616.301	5.2366
616.496	4.93871
616.691	7.7037
616.885	7.11591
617.08	9.54981
617.274	7.21844
617.469	8.53296
617.664	6.52205
617.858	5.27856
618.053	6.35622
618.247	5.60941
618.442	2.58698
618.636	7.90236
618.831	4.97017
619.025	5.30336
619.219	9.32954
619.414	1.67571
619.608	5.7287
619.803	4.69176
619.997	8.89718
620.191	7.53
620.386	6.50189
620.58	5.85976
620.774	3.70131
620.969	3.63219
621.163	5.64938
621.357	4.2483
621.551	5.26988
621.746	6.21447
621.94	5.67207
622.134	10.39429
622.328	8.84877
622.522	3.83127
622.716	7.11315
622.911	7.34506
623.105	7.14281
623.299	6.54261
623.493	10.64198
623.687	4.67956
623.881	5.62457
624.075	6.60252
624.269	7.86084
624.463	3.57594
624.657	3.76508
624.851	6.79045
625.045	7.13225
625.239	7.17773
625.433	5.34767
625.627	7.95444
625.821	4.78791
626.015	4.89056
626.209	5.86987
626.403	3.59062
626.596	6.33156
626.79	6.72827
626.984	4.24842
627.178	6.39437
627.372	6.36175
627.565	7.02101
627.759	3.89093
627.953	4.1593
628.147	6.44836
628.34	6.78588
628.534	8.82144
628.728	5.59076
628.921	6.91273
629.115	6.90945
629.309	7.40839
629.502	7.29377
629.696	6.21353
629.89	5.99996
630.083	6.45941
630.277	6.71802
630.47	8.84586
630.664	5.70807
630.857	3.8737
631.051	7.01166
631.244	7.61612
631.438	7.65871
631.631	4.79941
631.825	8.5504
632.018	7.38821
632.212	8.88397
632.405	7.91867
632.598	5.43772
632.792	6.26289
632.985	2.90959
633.178	5.77348
633.372	5.79138
633.565	5.8326
633.758	8.55796
633.952	4.69467
634.145	4.68178
634.338	5.50328
634.531	5.63977
634.724	5.29708
634.918	6.29524
635.111	5.50999
635.304	5.44788
635.497	9.62493
635.69	6.52793
635.883	8.30933
636.077	4.71589
636.27	6.78774
636.463	6.79355
636.656	6.62689
636.849	5.65773
637.042	7.28668
637.235	9.13137
637.428	7.71489
637.621	7.99122
637.814	8.63606
638.007	8.91623
638.2	8.72055
638.393	9.75228
638.586	4.44136
638.778	5.80626
638.971	6.75151
639.164	9.71434
639.357	6.92486
639.55	8.70251
639.743	8.26289
639.935	7.31985
640.128	10.2669
640.321	7.51959
640.514	7.46466
640.707	11.27554
640.899	7.85433
641.092	3.90178
641.285	20.43837
641.477	3.11846
641.67	11.1977
641.863	8.92442
642.055	7.40688
642.248	6.82008
642.441	5.99597
642.633	8.04756
642.826	10.13203
643.018	9.70668
643.211	10.51822
643.403	10.04361
643.596	11.27789
643.788	10.36349
643.981	6.59931
644.173	8.60445
644.366	6.6668
644.558	3.83778
644.751	8.95228
644.943	4.92841
645.135	10.27502
645.328	10.56508
645.52	8.12233
645.712	9.30859
645.905	14.34882
646.097	5.356
646.289	7.31511
646.482	11.39543
646.674	6.31047
646.866	9.7069
647.058	8.19068
647.251	5.52599
647.443	6.17542
647.635	7.38443
647.827	5.34546
648.019	6.41253
648.211	7.50136
648.404	7.46519
648.596	10.93172
648.788	8.12053
648.98	8.18217
649.172	8.49069
649.364	8.04061
649.556	4.09187
649.748	12.29571
649.94	6.0474
650.132	8.3654
650.324	5.67765
650.516	5.95822
650.708	10.04826
650.9	4.51554
651.092	4.26591
651.284	4.76792
651.476	4.81656
651.667	9.06265
651.859	10.09714
652.051	7.3071
652.243	7.69306
652.435	6.37004
652.627	8.78786
652.818	8.34009
653.01	4.19888
653.202	5.37148
653.394	6.61373
653.585	8.55598
653.777	16.6086
653.969	10.2284
654.16	9.87769
654.352	5.797
654.544	6.8737
654.735	10.43007
654.927	8.18894
655.118	11.0348
655.31	8.39649
655.502	10.19436
655.693	6.41559
655.885	9.39002
656.076	10.80129
656.268	8.57344
656.459	11.21632
656.651	10.88476
656.842	6.44564
657.034	6.33614
657.225	9.51384
657.416	10.62372
657.608	10.7704
657.799	7.32801
657.99	10.45517
658.182	6.64631
658.373	6.3614
658.564	9.30377
658.756	7.44115
658.947	7.27805
659.138	5.55169
659.33	6.38289
659.521	5.80551
659.712	7.15068
659.903	7.00083
660.094	6.37672
660.286	4.53753
660.477	11.47824
660.668	8.82038
660.859	7.35414
661.05	4.89921
661.241	9.49371
661.432	8.45747
661.623	7.16768
661.814	6.82048
662.006	4.35577
662.197	8.60035
662.388	10.37659
662.579	8.27981
662.77	10.91219
662.96	14.54108
663.151	10.31775
663.342	4.48649
663.533	8.95402
663.724	8.38821
663.915	11.94872
664.106	7.79511
664.297	12.54236
664.488	10.24978
664.678	6.96655
664.869	9.29511
665.06	11.10741
665.251	9.13557
665.442	9.43339
665.632	6.13774
665.823	12.93317
666.014	1.71523
666.204	10.53239
666.395	11.34586
666.586	15.62785
666.776	10.69275
666.967	12.93786
667.158	8.77742
667.348	11.66184
667.539	6.36273
667.729	10.78077
667.92	7.08408
668.111	11.36031
668.301	10.20376
668.492	8.04095
668.682	8.50519
668.873	8.28517
669.063	5.81041
669.253	9.14333
669.444	10.98257
669.634	8.24377
669.825	13.74007
670.015	11.44003
670.206	6.59049
670.396	13.62791
670.586	8.06213
670.777	9.97204
670.967	3.59007
671.157	8.32376
671.347	7.36552
671.538	13.20961
671.728	10.49727
671.918	14.09657
672.108	10.98637
672.299	8.80062
672.489	9.59923
672.679	7.7519
672.869	10.43803
673.059	13.15104
673.249	11.31017
673.44	6.13658
673.63	9.02395
673.82	11.85058
674.01	7.50181
674.2	10.69782
674.39	16.86951
674.58	10.56013
674.77	9.13695
674.96	9.23686
675.15	20.85369
675.34	12.88381
675.53	9.14897
675.72	9.07715
675.91	5.64352
676.099	15.22622
676.289	16.34477
676.479	12.5296
676.669	8.62194
676.859	11.42964
677.049	7.48599
677.238	9.84109
677.428	14.554
677.618	10.70419
677.808	13.12401
677.997	11.84253
678.187	6.47171
678.377	9.82032
678.567	7.88101
678.756	8.08384
678.946	8.40314
679.136	5.38661
679.325	6.74098
679.515	6.7627
679.704	6.19736
679.894	11.06259
680.084	9.56985
680.273	11.74823
680.463	6.8455
680.652	7.117
680.842	9.49378
681.031	11.16339
681.221	7.07173
681.41	10.36697
681.6	8.79277
681.789	11.91127
681.978	12.40561
682.168	10.35906
682.357	10.06287
682.547	11.4698
682.736	10.07144
682.925	12.99047
683.115	12.80718
683.304	12.26523
683.493	10.80277
683.682	10.93134
683.872	11.38895
684.061	14.36261
684.25	11.38885
684.439	15.95932
684.629	12.18972
684.818	20.77414
685.007	10.36931
685.196	9.22708
685.385	15.12537
685.574	11.11815
685.763	11.45861
685.952	11.16963
686.142	7.70806
686.331	14.45139
686.52	5.26684
686.709	15.48942
686.898	15.46977
687.087	13.11106
687.276	16.26912
687.465	14.43952
687.654	9.68982
687.842	15.45794
688.031	6.97441
688.22	14.85048
688.409	11.5543
688.598	11.251
688.787	19.14518
688.976	11.85997
689.165	17.72945
689.353	10.08766
689.542	12.67369
689.731	13.43509
689.92	17.4235
690.108	14.29778
690.297	9.86361
690.486	11.7422
690.675	14.76005
690.863	17.42862
691.052	16.55375
691.241	13.03508
691.429	12.42705
691.618	17.0746
691.806	7.84535
691.995	10.13079
692.184	12.37505
692.372	9.62428
692.561	13.55424
692.749	11.70685
692.938	20.81078
693.126	14.22589
693.315	11.92409
693.503	14.36041
693.692	14.92544
693.88	16.22256
694.068	19.55277
694.257	11.55403
694.445	13.78273
694.634	5.93767
694.822	16.06493
695.01	16.8034
695.199	17.26589
695.387	17.95684
695.575	16.84254
695.763	11.8288
695.952	11.19021
696.14	7.32131
696.328	10.69919
696.516	13.16061
696.705	13.32101
696.893	13.06516
697.081	6.27396
697.269	14.79664
697.457	8.54017
697.645	7.97784
697.833	14.07847
698.021	9.44818
698.21	9.92721
698.398	10.64174
698.586	7.69615
698.774	6.79571
698.962	10.33388
699.15	8.37516
699.338	6.4567
699.526	12.12812
699.714	9.36717
699.901	8.9763
700.089	14.73398
700.277	8.43024
700.465	11.42501
700.653	14.02813
700.841	13.5072
701.029	9.34828
701.217	17.14794
701.404	13.22657
701.592	17.13901
701.78	20.4271
701.968	12.2765
702.155	11.73818
702.343	6.84489
702.531	17.37488
702.718	14.39356
702.906	12.39703
703.094	10.9299
703.281	17.56
703.469	13.60392
703.657	17.99603
703.844	25.32739
704.032	20.11573
704.219	10.95723
704.407	14.56084
704.595	18.86337
704.782	13.51419
704.97	11.80847
705.157	11.9034
705.345	19.19852
705.532	24.41996
705.719	15.08483
705.907	19.08953
706.094	15.15283
706.282	20.07725
706.469	11.88369
706.656	13.4118
706.844	13.1084
707.031	18.73252
707.218	15.24047
707.406	20.83691
707.593	17.3628
707.78	17.81182
707.968	13.86934
708.155	10.50437
708.342	16.85706
708.529	16.6074
708.716	15.43944
708.904	21.77837
709.091	17.32005
709.278	9.66339
709.465	22.08298
709.652	22.08062
709.839	20.05363
710.026	16.63297
710.213	8.77929
710.4	16.21681
710.587	19.25947
710.774	19.58665
710.961	19.76018
711.148	15.01876
711.335	19.44385
711.522	14.02797
711.709	17.49624
711.896	25.30737
712.083	19.3808
712.27	11.48019
712.457	16.16326
712.644	9.03111
712.831	24.69411
713.017	16.24449
713.204	19.0236
713.391	13.7942
713.578	21.01536
713.765	22.17514
713.951	18.64634
714.138	30.89158
714.325	19.55427
714.512	16.05079
714.698	13.21594
714.885	23.30979
715.072	17.72596
715.258	16.2421
715.445	14.51652
715.631	21.86506
715.818	5.8741
716.005	13.59894
716.191	20.26167
716.378	15.11909
716.564	21.12379
716.751	12.72236
716.937	14.47404
717.124	21.89632
717.31	13.21778
717.497	24.32735
717.683	14.24069
717.869	27.41014
718.056	15.70671
718.242	20.11889
718.429	16.4379
718.615	11.91387
718.801	17.74008
718.988	21.02034
719.174	19.54927
719.36	17.10159
719.547	22.36534
719.733	20.64627
719.919	20.20136
720.105	21.1582
720.291	17.83811
720.478	18.57194
720.664	17.14011
720.85	16.488
721.036	32.6425
721.222	26.59432
721.408	17.81846
721.595	28.95785
721.781	28.64015
721.967	24.27285
722.153	26.97254
722.339	22.31425
722.525	19.89586
722.711	14.08921
722.897	11.91911
723.083	16.746
723.269	24.26897
723.455	32.50291
723.641	34.47929
723.827	19.91082
724.012	21.14391
724.198	18.15785
724.384	26.62333
724.57	20.84321
724.756	11.58447
724.942	9.01252
725.127	23.79288
725.313	26.97716
725.499	27.65961
725.685	30.44297
725.87	20.15856
726.056	15.14571
726.242	28.26583
726.428	10.62324
726.613	24.88627
726.799	17.53587
726.985	14.08655
727.17	11.05603
727.356	30.45977
727.541	14.63517
727.727	19.06009
727.913	24.92952
728.098	17.41704
728.284	23.63563
728.469	12.10403
728.655	15.28868
728.84	24.56749
729.026	24.61241
729.211	25.15409
729.397	22.70607
729.582	23.53275
729.767	19.39062
729.953	21.59755
730.138	24.89096
730.323	7.47313
730.509	14.11168
730.694	28.63726
730.879	22.78863
731.065	20.97734
731.25	33.61154
731.435	24.23575
731.621	11.78686
731.806	16.81771
731.991	22.4666
732.176	12.13977
732.361	27.272
732.547	24.2555
732.732	10.78639
732.917	34.83279
733.102	12.81788
733.287	15.78545
733.472	20.63763
733.657	20.62813
733.842	11.75347
734.027	16.94605
734.212	18.75416
734.397	15.29195
734.582	20.26566
734.767	25.1332
734.952	28.30075
735.137	6.84626
735.322	29.94168
735.507	21.18517
735.692	20.02943
735.877	34.32879
736.062	32.51269
736.247	22.61508
736.431	20.17395
736.616	28.6241
736.801	23.39516
736.986	21.07436
737.171	15.95986
737.355	10.83111
737.54	29.16162
737.725	21.54175
737.909	38.64915
738.094	17.75857
738.279	25.47224
738.463	19.62815
738.648	25.82883
738.833	23.73743
739.017	34.03317
739.202	19.84881
739.386	19.99919
739.571	15.44206
739.756	27.62933
739.94	22.07657
740.125	26.50594
740.309	16.4057
740.494	26.67291
740.678	22.34812
740.863	23.6629
741.047	24.21322
741.231	30.20765
741.416	16.74949
741.6	32.91981
741.785	16.256
741.969	28.75656
742.153	31.01249
742.338	8.55928
742.522	21.65243
742.706	28.52396
742.89	12.5541
743.075	23.0045
743.259	30.89761
743.443	28.13468
743.627	30.56248
743.812	38.89279
743.996	6.44764
744.18	22.17476
744.364	19.40415
744.548	40.79176
744.732	22.00769
744.916	27.3907
745.1	26.53876
745.285	19.80876
745.469	27.01881
745.653	36.30628
745.837	14.16418
746.021	40.27237
746.205	32.46058
746.389	24.53482
746.573	20.53603
746.757	35.72037
746.94	21.56528
747.124	32.51339
747.308	14.12012
747.492	30.63183
747.676	19.16696
747.86	42.41978
748.044	20.36551
748.227	10.34475
748.411	52.07631
748.595	27.47539
748.779	16.5738
748.963	27.74898
749.146	24.10306
749.33	18.16713
749.514	17.26708
749.697	30.56189
749.881	19.47275
750.065	15.53268
750.248	21.97039
750.432	42.80793
750.616	24.50823
750.799	13.57082
750.983	41.22775
751.166	46.35114
751.35	12.3192
751.533	29.27339
751.717	34.14658
751.9	35.0258
752.084	18.31689
752.267	15.37972
752.451	17.57235
752.634	24.95119
752.818	28.44478
753.001	31.54386
753.184	32.65002
753.368	26.35427
753.551	-0.61003
753.734	17.99651
753.918	42.05641
754.101	17.31943
754.284	29.99616
754.467	20.24284
754.651	20.0728
754.834	18.07075
755.017	34.03723
755.2	31.93408
755.384	16.9563
755.567	30.0123
755.75	34.33355
755.933	19.82051
756.116	25.02315
756.299	19.98923
756.482	15.91269
756.665	29.22018
756.848	25.953
757.032	28.53915
757.215	13.77527
757.398	15.69635
757.581	18.03394
757.764	46.70495
757.947	26.35667
758.129	32.52173
758.312	1.31495
758.495	24.63677
758.678	23.17736
758.861	24.89964
759.044	41.71597
759.227	19.0013
759.41	19.12376
759.592	30.41897
759.775	21.97817
759.958	33.51461
760.141	13.41372
760.324	41.88418
760.506	38.14589
760.689	30.22344
760.872	45.80416
761.054	28.19381
761.237	19.32092
761.42	29.23374
761.602	31.88642
761.785	28.38935
761.968	33.21989
762.15	39.76345
762.333	23.28297
762.515	27.79817
762.698	20.58237
762.88	29.92885
763.063	25.73391
763.245	29.5199
763.428	17.06467
763.61	17.13143
763.793	13.58718
763.975	26.01778
764.158	20.02552
764.34	19.21476
764.522	16.00771
764.705	22.16735
764.887	34.33006
765.069	12.11949
765.252	28.54833
765.434	30.25174
765.616	25.10624
765.799	20.70032
765.981	31.46826
766.163	17.1927
766.345	33.01737
766.528	19.15805
766.71	6.57227
766.892	26.90097
767.074	34.80032
767.256	22.81287
767.438	41.93012
767.62	28.73833
767.802	44.39841
767.985	31.20894
768.167	43.7238
768.349	21.36849
768.531	31.37786
768.713	28.06542
768.895	30.47084
769.077	28.24231
769.259	50.54944
769.441	74.91434
769.623	36.67412
769.804	42.15785
769.986	43.31331
770.168	54.96409
770.35	66.2083
770.532	44.58919
770.714	47.34521
770.896	51.27197
771.077	17.78416
771.259	54.47435
771.441	46.33838
771.623	58.69307
771.804	75.19134
771.986	14.87905
772.168	35.70923
772.35	59.09341
772.531	74.34164
772.713	45.57071
772.894	57.34843
773.076	40.49531
773.258	33.57095
773.439	59.19456
773.621	64.99704
773.802	22.39981
773.984	37.51132
774.166	46.8612
774.347	64.9627
774.529	51.98134
774.71	13.33411
774.891	39.94244
775.073	40.16284
775.254	65.79811
775.436	36.652
775.617	67.37204
775.799	36.11121
775.98	68.92736
776.161	67.82836
776.343	66.12115
776.524	42.2899
776.705	38.47767
776.886	19.17022
777.068	47.55609
777.249	84.78556
777.43	75.73263
777.611	26.83501
777.793	44.39921
777.974	71.41989
778.155	40.72299
778.336	32.38197
778.517	75.62235
778.698	34.27605
778.879	15.0945
779.061	4.76446
779.242	52.25757
779.423	51.04379
779.604	32.7407
779.785	35.94358
779.966	49.47483
780.147	57.5493
780.328	62.20515
780.509	87.06865
780.69	56.13509
780.871	35.40564
781.051	20.30464
781.232	47.87566
781.413	46.98978
781.594	38.32907
781.775	37.67634
781.956	34.5027
782.137	15.98725
782.317	29.67145
782.498	49.38347
782.679	46.43568
782.86	46.42289
783.04	32.14778
783.221	51.24005
783.402	79.5118
783.583	41.22386
783.763	55.86262
783.944	37.37697
784.124	19.93966
784.305	70.00019
784.486	50.41938
784.666	40.97134
784.847	13.49766
785.027	88.4121
785.208	30.77678
785.388	36.52291
785.569	33.64461
785.749	36.42563
785.93	31.29839
786.11	18.58431
786.291	49.91879
786.471	46.05661
786.652	55.13333
786.832	42.20585
787.012	49.6445
787.193	22.71529
787.373	44.01045
787.553	34.98512
787.734	44.34464
787.914	34.96926
788.094	51.50889
788.275	47.55407
788.455	37.10369
788.635	24.8617
788.815	44.66064
788.995	24.93855
789.176	22.05738
789.356	28.6172
789.536	39.20757
789.716	50.75758
789.896	32.10722
790.076	36.36698
790.256	47.60295
790.436	9.30569
790.616	26.4149
790.796	49.12714
790.976	36.28658
791.156	33.48637
791.336	56.7183
791.516	45.13248
791.696	38.97558
791.876	20.68238
792.056	46.17796
792.236	57.2731
792.416	54.24136
792.596	52.54786
792.776	46.93736
792.956	52.84969
793.135	67.48605
793.315	25.21104
793.495	63.15913
793.675	49.90689
793.854	57.24691
794.034	57.78756
794.214	25.33388
794.394	53.902
794.573	61.88547
794.753	40.01257
794.933	29.88047
795.112	46.05458
795.292	56.52285
795.472	69.50009
795.651	26.12571
795.831	42.30502
796.01	37.87158
796.19	34.63544
796.369	38.74608
796.549	50.27667
796.728	40.646
796.908	24.2341
797.087	27.81959
797.267	42.05038
797.446	26.11014
797.626	46.89749
797.805	48.6404
797.984	29.33319
798.164	50.79
798.343	29.85022
798.522	47.16923
798.702	45.89797
798.881	23.30269
799.06	39.51824
799.239	13.3544
799.419	28.6884
799.598	64.45743
799.777	54.02797
799.956	59.23903
800.136	36.78314
800.315	30.1165
800.494	46.49434
800.673	56.44787
800.852	55.40298
801.031	60.06183
801.21	52.79387
801.389	31.56366
801.568	47.63122
801.747	72.64767
801.926	39.62316
802.105	65.93605
802.284	38.66844
802.463	67.68836
802.642	44.51679
802.821	51.63607
803	66.91508
803.179	54.35853
803.358	61.48173
803.537	33.89694
803.716	53.9376
803.895	32.92182
804.073	40.10521
804.252	29.19029
804.431	51.74119
804.61	41.89934
804.789	63.18326
804.967	36.18282
805.146	34.94807
805.325	82.15125
805.503	52.32546
805.682	23.57613
805.861	88.5343
806.039	63.27771
806.218	26.60898
806.397	45.63715
806.575	45.18357
806.754	51.95813
806.932	32.43508
807.111	71.84429
807.289	56.15449
807.468	47.37485
807.646	58.73108
807.825	52.05205
808.003	47.23435
808.182	58.44981
808.36	45.40463
808.539	32.45554
808.717	70.58428
808.895	34.11316
809.074	49.82706
809.252	39.35788
809.43	63.37381
809.609	71.36702
809.787	82.40472
809.965	42.60179
810.144	46.42855
810.322	38.90128
810.5	52.36606
810.678	42.99801
810.856	82.54963
811.035	65.9616
811.213	65.04864
811.391	59.60299
811.569	46.3771
811.747	105.50567
811.925	64.03127
812.103	29.68163
812.281	38.83538
812.459	86.70849
812.637	81.4406
812.816	61.62394
812.994	90.64997
813.171	70.24135
813.349	60.43864
813.527	75.41607
813.705	69.30256
813.883	90.28112
814.061	65.24837
814.239	86.30114
814.417	98.55514
814.595	60.19974
814.773	55.95601
814.95	56.17729
815.128	59.97201
815.306	47.22905
815.484	49.66279
815.662	36.97787
815.839	35.9308
816.017	38.56992
816.195	65.60269
816.372	47.20302
816.55	72.50348
816.728	80.38657
816.905	55.40931
817.083	82.85166
817.261	53.69999
817.438	102.7819
817.616	91.4681
817.793	33.14726
817.971	67.41457
818.148	59.31494
818.326	73.57566
818.503	60.93337
818.681	75.71281
818.858	41.74045
819.036	55.85216
819.213	52.31112
819.391	37.5978
819.568	32.80889
819.745	30.46202
819.923	58.87085
820.1	37.25364
820.277	35.24784
820.455	38.67207
820.632	43.63721
820.809	45.86581
820.986	26.03905
821.164	20.91037
821.341	18.1397
821.518	26.10477
821.695	19.55884
821.872	18.11001
822.05	15.54499
822.227	11.34888
822.404	12.72378
822.581	14.62924
822.758	12.56857
822.935	12.71105
823.112	15.31611
823.289	12.2186
823.466	15.58899
823.643	14.65566
823.82	17.61466
823.997	15.84279
824.174	19.72018
824.351	25.50267
824.528	25.80557
824.705	24.50048
824.882	26.39263
825.059	34.67
825.236	23.11162
825.412	24.43503
825.589	30.07664
825.766	45.4027
825.943	26.32233
826.12	32.59866
826.296	20.37227
826.473	27.2647
826.65	26.61707
826.827	34.32733
827.003	20.47224
827.18	23.28445
827.357	26.69129
827.533	23.25625
827.71	11.53472
827.887	20.2351
828.063	23.70547
828.24	20.3048
828.416	28.44116
828.593	21.92501
828.769	33.97373
828.946	37.92646
829.122	40.39844
829.299	39.9513
829.475	14.31217
829.652	34.08657
829.828	63.0264
830.005	38.60621
830.181	52.00154
830.357	36.44054
830.534	64.04752
830.71	43.44175
830.886	58.19701
831.063	52.98586
831.239	72.49029
831.415	28.91898
831.592	75.5312
831.768	40.55059
831.944	34.4851
832.12	74.89693
832.296	64.61599
832.473	55.48692
832.649	38.66258
832.825	53.60396
833.001	29.02689
833.177	45.00036
833.353	41.90507
833.529	20.8526
833.705	33.23835
833.881	23.65917
834.058	22.24744
834.234	24.1973
834.41	24.87968
834.586	18.70468
834.761	22.83528
834.937	27.25546
835.113	27.28811
835.289	24.5101
835.465	32.30336
835.641	24.18268
835.817	29.50831
835.993	59.915
836.169	25.54485
836.344	37.0142
836.52	46.93772
836.696	53.59857
836.872	32.2859
837.048	108.01586
837.223	33.89148
837.399	92.78171
837.575	70.29339
837.75	65.22003
837.926	98.92075
838.102	145.51189
838.277	99.30121
838.453	153.69315
838.628	155.82519
838.804	48.09491
838.98	147.96444
839.155	67.94322
839.331	91.71294
839.506	64.80255
839.682	65.78913
839.857	78.21232
840.033	93.26686
840.208	41.56153
840.384	17.15918
840.559	44.98491
840.734	70.16648
840.91	98.7704
841.085	66.12102
841.26	61.1843
841.436	55.98378
841.611	51.10028
841.786	84.71067
841.962	127.19588
842.137	75.94485
842.312	41.48413
842.487	60.7222
842.663	52.32827
842.838	72.31118
843.013	241.97132
843.188	119.9528
843.363	107.10646
843.538	214.84387
843.714	222.37713
843.889	219.91958
844.064	186.19006
844.239	149.82888
844.414	237.9135
844.589	151.77235
844.764	253.12487
844.939	285.96143
845.114	249.59631
845.289	303.93197
845.464	361.83088
845.639	245.98126
845.814	145.0098
845.989	173.17687
846.163	181.84092
846.338	237.76961
846.513	295.03546
846.688	204.90777
846.863	224.47104
847.038	148.24903
847.212	181.68085
847.387	233.69659
847.562	206.59111
847.737	272.8739
847.911	111.32458
848.086	144.99957
848.261	285.30038
848.435	164.45544
848.61	273.89557
848.785	136.79944
848.959	304.87433
849.134	282.57293
849.308	628.47497
849.483	229.64008
849.658	351.17375
849.832	183.34745
850.007	109.86694
850.181	472.8845
850.356	237.91693
850.53	403.81641
850.705	128.99432
850.879	90.05731
851.053	171.05244
851.228	216.43872
851.402	332.69563
851.577	272.77935
851.751	391.26095
851.925	178.45877
852.099	71.07464
852.274	159.78064
852.448	199.12281
852.622	271.77956
852.797	195.0655
852.971	235.49436
853.145	244.19729
853.319	473.93353
853.493	412.1064
853.668	209.90135
853.842	522.30709
854.016	350.30282
854.19	432.099
854.364	213.59275
854.538	322.46202
854.712	319.88533
854.886	202.53495
855.06	211.06572
855.234	73.8466
855.408	360.13598
855.582	312.57496
855.756	471.41798
855.93	353.53101
856.104	305.17719
856.278	329.20854
856.452	208.69727
856.626	239.69977
856.8	461.41768
856.973	359.16259
857.147	316.58052
857.321	320.26906
857.495	338.32354
857.669	257.66187
857.842	249.77407
858.016	389.16207
858.19	154.15051
858.364	499.28185
858.537	230.33583
858.711	304.42598
858.885	226.10325
859.058	160.60437
859.232	139.46826
859.405	81.52629
859.579	303.96279
859.753	380.7801
859.926	182.53172
860.1	134.02536
860.273	266.77746
860.447	396.59881
860.62	215.84749
860.794	471.01769
860.967	230.37326
861.141	292.87201
861.314	476.06777
861.487	286.49326
861.661	359.39102
861.834	552.30847
862.008	312.66665
862.181	316.11358
862.354	259.42373
862.528	375.19407
862.701	235.68523
862.874	137.787
863.047	212.14595
863.221	177.86302
863.394	101.28842
863.567	290.89153
863.74	85.21606
863.913	327.60521
864.087	307.38653
864.26	352.54371
864.433	236.69299
864.606	489.84372
864.779	285.04999
864.952	110.87216
865.125	246.25267
865.298	279.83326
865.471	277.66431
865.644	423.88073
865.817	337.33466
865.99	365.43846
866.163	406.07746
866.336	161.82689
866.509	292.3278
866.682	244.11168
866.855	440.81143
867.028	125.38434
867.2	257.03182
867.373	79.07621
867.546	234.44526
867.719	497.85598
867.892	347.91684
868.064	194.35098
868.237	254.26
868.41	268.93353
868.583	130.16343
868.755	149.85555
868.928	222.63871
869.101	540.04992
869.273	394.71749
869.446	260.46479
869.619	413.71267
869.791	362.56994
869.964	408.04535
870.136	430.58951
870.309	210.2057
870.481	267.20828
870.654	101.73912
870.826	238.83786
870.999	189.81833
871.171	382.70346
871.344	164.53351
871.516	190.88228
871.689	170.14167
871.861	268.54245
872.033	170.67255
872.206	209.01957
872.378	265.90156
872.55	248.58789
872.723	133.22645
872.895	205.143
873.067	325.95112
873.24	270.67882
873.412	179.18277
873.584	229.58207
873.756	211.90162
873.928	240.02547
874.101	226.80336
874.273	281.74819
874.445	88.72842
874.617	123.28767
874.789	210.22899
874.961	182.06907
875.133	271.05734
875.305	239.78462
875.477	150.80168
875.649	111.19746
875.821	144.54567
875.993	338.19999
876.165	216.33071
876.337	231.3059
876.509	204.19345
876.681	225.34223
876.853	214.4295
877.025	242.41419
877.197	158.28028
877.369	139.26474
877.541	262.76379
877.712	50.48436
877.884	119.10773
878.056	248.53578
878.228	119.43514
878.4	262.21643
878.571	121.91345
878.743	85.0784
878.915	183.98997
879.086	92.45391
879.258	126.08808
879.43	110.03675
879.601	102.04392
879.773	95.90582
879.945	17.46965
880.116	34.70643
880.288	21.88581
880.459	23.4756
880.631	17.34161
880.802	21.03774
880.974	20.25447
881.145	12.62946
881.317	18.82068
881.488	14.39861
881.66	15.81036
881.831	14.0627
882.002	20.27801
882.174	14.67763
882.345	19.55627
882.517	8.89254
882.688	25.07601
882.859	17.79282
883.03	32.72249
883.202	31.58163
883.373	27.11789
883.544	25.05425
883.715	48.80998
883.887	39.07114
884.058	31.65364
884.229	50.21558
884.4	52.81046
884.571	59.56452
884.742	51.24758
884.914	57.38186
885.085	83.10414
885.256	118.8994
885.427	99.12928
885.598	123.17906
885.769	114.92253
885.94	113.36828
886.111	71.13067
886.282	131.97778
886.453	115.04824
886.624	82.32869
886.795	146.74241
886.966	114.29399
887.136	147.25559
887.307	113.08968
887.478	203.85824
887.649	180.20942
887.82	194.14781
887.991	129.27638
888.161	233.5136
888.332	204.57367
888.503	120.70946
888.674	288.2861
888.844	334.02959
889.015	316.22825
889.186	141.4798
889.356	307.62387
889.527	137.19784
889.698	515.90512
889.868	187.89211
890.039	319.00501
890.209	191.76436
890.38	264.98998
890.551	248.22953
890.721	346.55252
890.892	313.20786
891.062	290.24067
891.233	332.14655
891.403	279.83964
891.574	153.23261
891.744	177.04403
891.914	212.49188
892.085	329.22156
892.255	50.49548
892.425	320.64538
892.596	193.04814
892.766	259.68047
892.936	378.65218
893.107	240.2755
893.277	113.76721
893.447	104.58514
893.618	58.8331
893.788	151.65396
893.958	81.14542
894.128	65.14616
894.298	80.70773
894.468	105.03739
894.639	49.23391
894.809	23.03665
894.979	54.41711
895.149	54.53335
895.319	43.55355
895.489	72.78753
895.659	98.67647
895.829	56.0799
895.999	60.52491
896.169	47.30249
896.339	68.96721
896.509	125.39984
896.679	152.0392
896.849	168.94191
897.019	235.29658
897.189	222.48574
897.358	160.10335
897.528	268.15532
897.698	136.4089
897.868	262.32165
898.038	536.18476
898.208	455.64899
898.377	129.95577
898.547	793.47061
898.717	810.31339
898.886	319.38577
899.056	538.17357
899.226	877.33673
899.395	655.51827
899.565	702.16234
899.735	443.83121
899.904	622.62496
900.074	891.21959
900.244	260.93264
900.413	1638.78813
900.583	265.50765
900.752	3207.67966
900.922	588.40126
901.091	3.67725
901.261	696.64645
901.43	490.4226
901.599	660.98853
901.769	1383.93192
901.938	709.13312
902.108	599.91468
902.277	733.99793
902.446	245.45973
902.616	281.92119
902.785	385.41321
902.954	535.72766
903.124	274.8462
903.293	204.71797
903.462	86.08583
903.631	142.97808
903.801	94.82156
903.97	44.97533
904.139	80.41058
904.308	59.79809
904.477	54.23181
904.646	29.33942
904.816	43.62284
904.985	67.4539
905.154	102.51163
