Data from WindowProjectSample_Transmission__93__00093.txt Node

Date: Sat May 03 18:26:07 EDT 2025
User: jessi
Spectrometer: SR400872
Trigger mode: 0
Integration Time (sec): 5.000050E-1
Scans to average: 10
Electric dark correction enabled: true
Nonlinearity correction enabled: true
Boxcar width: 0
XAxis mode: Wavelengths
Number of Pixels in Spectrum: 3648
>>>>>Begin Spectral Data<<<<<
184.909	-5374.01132
185.132	11977.32359
185.355	-13196.6825
185.578	78863.5899
185.801	-1315.22676
186.024	6115.63165
186.247	-9960.08684
186.47	-6854.61585
186.693	1254.77029
186.916	-1940.81099
187.139	31690.71846
187.362	13034.32636
187.585	-3108.09042
187.808	-4107.92396
188.031	-170.66577
188.254	9425.00288
188.476	-602.82232
188.699	-4841.58375
188.922	439.50358
189.145	5675.95332
189.368	2419.83915
189.591	995.04516
189.813	11408.77273
190.036	-64149.9139
190.259	1787.64785
190.482	2314.51572
190.705	6221.31637
190.927	4678.53612
191.15	3619.19567
191.373	6162.10847
191.595	1476.9205
191.818	2916.12324
192.041	413.22177
192.263	3532.96452
192.486	1163.96693
192.709	7685.05767
192.931	35399.26542
193.154	3415.22345
193.377	2456.3599
193.599	1807.12103
193.822	798.43241
194.044	1649.48297
194.267	1375.68167
194.489	-111.12918
194.712	2849.11071
194.934	7238.09853
195.157	-11750.37085
195.379	1974.02549
195.602	18009.11075
195.824	3790.53904
196.047	1077.92958
196.269	4913.35845
196.492	27471.22242
196.714	2709.76238
196.936	3456.34396
197.159	5588.16617
197.381	3336.76017
197.604	462.64739
197.826	1721.64317
198.048	1081.13246
198.271	3076.31293
198.493	3872.07853
198.715	6079.49259
198.938	558.70276
199.16	1502.02798
199.382	4873.56167
199.604	-31270.64072
199.827	2795.59602
200.049	1230.86889
200.271	2395.30809
200.493	8193.36918
200.715	3134.92412
200.938	70304.16174
201.16	1893.35741
201.382	2541.75403
201.604	1825.94794
201.826	5531.35933
202.048	1244.61284
202.27	4732.80238
202.492	1730.51218
202.715	1421.97736
202.937	-31504.41444
203.159	5234.53825
203.381	2139.87349
203.603	8254.89263
203.825	1276.24529
204.047	1705.76345
204.269	2135.85408
204.491	1809.32924
204.713	1362.65442
204.935	2053.71297
205.156	1274.15867
205.378	2126.06085
205.6	1535.87011
205.822	8121.00094
206.044	867.25564
206.266	1289.16181
206.488	2656.53277
206.71	4942.92101
206.932	1782.79764
207.153	4915.92706
207.375	1182.28376
207.597	4509.8173
207.819	1340.26209
208.041	3284.36405
208.262	1118.3121
208.484	3345.44129
208.706	1171.05435
208.927	2307.85026
209.149	1463.84033
209.371	2276.00683
209.593	324.25581
209.814	5506.82821
210.036	14828.23001
210.258	783.71308
210.479	1321.29514
210.701	2188.59289
210.922	2247.55835
211.144	1408.12012
211.366	2875.91432
211.587	601.25103
211.809	2686.41452
212.03	1805.92513
212.252	498.83313
212.473	1221.58443
212.695	754.96811
212.916	1481.02082
213.138	540.04165
213.359	3577.59167
213.581	1567.11064
213.802	-3631.58236
214.024	2764.08101
214.245	1298.18078
214.466	544.33836
214.688	1506.97485
214.909	2053.71498
215.131	2699.60495
215.352	1077.29678
215.573	3740.13393
215.795	2214.51881
216.016	3248.68869
216.237	792.97203
216.459	3069.52119
216.68	12910.55568
216.901	1323.21963
217.122	998.87039
217.344	1529.19401
217.565	3878.46483
217.786	2178.04214
218.007	1068.24788
218.228	2427.9126
218.45	2042.22153
218.671	738.34901
218.892	1300.16014
219.113	962.96923
219.334	-324.12935
219.555	1269.4304
219.776	1494.56156
219.997	4008.08734
220.219	1708.87456
220.44	780.20909
220.661	531.47555
220.882	1188.9494
221.103	707.3935
221.324	819.18878
221.545	1232.82957
221.766	1566.89458
221.987	527.18186
222.208	693.15512
222.429	1289.26271
222.65	189.78326
222.87	345.22348
223.091	564.26587
223.312	503.73335
223.533	618.61157
223.754	1868.7332
223.975	1065.1332
224.196	537.66271
224.417	677.35371
224.637	334.25152
224.858	61.05402
225.079	416.38587
225.3	471.84053
225.521	1237.84995
225.741	333.79487
225.962	370.49874
226.183	98.85245
226.404	504.31112
226.624	353.31166
226.845	325.44404
227.066	284.37076
227.286	204.66918
227.507	109.94195
227.728	97.34467
227.948	177.77209
228.169	66.7815
228.389	70.91727
228.61	36.95295
228.831	56.48447
229.051	3.38385
229.272	31.42968
229.492	46.11909
229.713	15.51013
229.933	35.02535
230.154	29.27162
230.374	48.27452
230.595	33.72938
230.815	20.34336
231.036	34.36855
231.256	-6.74608
231.477	58.67482
231.697	35.9676
231.917	34.47888
232.138	52.19687
232.358	96.01505
232.579	92.80724
232.799	14.49826
233.019	80.5756
233.24	97.94878
233.46	36.04035
233.68	56.21195
233.901	42.25234
234.121	26.59397
234.341	9.38226
234.561	-4.00165
234.782	19.01209
235.002	63.62933
235.222	-1.86761
235.442	54.41302
235.662	27.56536
235.883	55.33607
236.103	50.45588
236.323	36.00462
236.543	25.95012
236.763	38.04969
236.983	41.22644
237.203	37.48284
237.423	56.88042
237.643	83.98772
237.864	72.46883
238.084	20.32283
238.304	27.5923
238.524	43.82955
238.744	36.4229
238.964	62.54824
239.184	56.43121
239.404	61.49303
239.624	33.68944
239.843	57.94895
240.063	34.63368
240.283	22.97213
240.503	25.85505
240.723	23.9347
240.943	15.2351
241.163	17.97238
241.383	14.97564
241.603	8.05083
241.822	9.28842
242.042	6.65792
242.262	9.03901
242.482	9.65729
242.702	11.25127
242.921	3.41452
243.141	7.58139
243.361	6.53565
243.581	10.22019
243.8	8.85032
244.02	6.23088
244.24	9.87906
244.459	9.60708
244.679	18.90417
244.899	8.87461
245.118	15.3312
245.338	12.12859
245.558	14.37465
245.777	8.94794
245.997	10.2572
246.216	10.76983
246.436	6.42419
246.655	4.70896
246.875	3.37053
247.094	6.70257
247.314	2.41379
247.533	3.78225
247.753	5.05798
247.972	4.06637
248.192	1.4955
248.411	2.29129
248.631	3.95235
248.85	5.13593
249.07	4.28754
249.289	7.13989
249.508	5.26919
249.728	8.72963
249.947	7.85481
250.166	9.57153
250.386	4.80254
250.605	6.99817
250.824	11.34369
251.044	8.54773
251.263	25.34629
251.482	14.7899
251.701	12.12494
251.921	0.64534
252.14	4.13378
252.359	5.17983
252.578	11.56733
252.798	3.93933
253.017	9.67857
253.236	4.86969
253.455	6.23256
253.674	12.32652
253.893	6.13266
254.112	8.5549
254.331	12.49181
254.551	10.45292
254.77	4.16833
254.989	15.49388
255.208	10.81424
255.427	15.50092
255.646	13.46522
255.865	22.20702
256.084	8.47242
256.303	10.96965
256.522	14.02221
256.741	3.37361
256.96	2.53307
257.179	8.17163
257.397	11.71797
257.616	6.2696
257.835	7.35825
258.054	16.15077
258.273	10.44678
258.492	11.59398
258.711	6.95332
258.93	3.23139
259.148	4.73369
259.367	5.1642
259.586	6.05388
259.805	2.85616
260.023	5.31955
260.242	4.04159
260.461	3.04985
260.68	1.6528
260.898	4.89301
261.117	1.81324
261.336	1.17077
261.554	4.08358
261.773	4.12234
261.992	0.89446
262.21	3.99047
262.429	4.67148
262.648	7.61589
262.866	8.78813
263.085	6.6313
263.303	5.89089
263.522	9.39467
263.74	9.79722
263.959	15.7349
264.178	8.30333
264.396	7.42178
264.615	4.96915
264.833	12.31894
265.051	10.22491
265.27	10.99343
265.488	11.97226
265.707	6.62041
265.925	11.97691
266.144	5.73644
266.362	6.48322
266.58	6.26724
266.799	5.60719
267.017	6.68596
267.235	5.76052
267.454	3.84084
267.672	2.25835
267.89	4.97243
268.109	4.88029
268.327	5.09425
268.545	1.52178
268.763	4.4957
268.982	2.20481
269.2	5.50417
269.418	3.66165
269.636	2.62589
269.854	5.03768
270.073	3.97181
270.291	1.95973
270.509	2.19421
270.727	5.09343
270.945	8.22819
271.163	7.91773
271.381	1.77078
271.599	3.28098
271.817	5.62028
272.036	1.91779
272.254	3.74198
272.472	2.63675
272.69	2.86274
272.908	2.87968
273.126	4.44607
273.344	6.03771
273.562	2.13528
273.779	2.79309
273.997	4.43998
274.215	4.62408
274.433	3.42404
274.651	4.84743
274.869	5.35113
275.087	3.33598
275.305	4.73258
275.523	2.84903
275.74	3.52756
275.958	6.00409
276.176	8.93226
276.394	2.72461
276.612	3.8354
276.829	3.68161
277.047	3.27297
277.265	3.38331
277.483	4.05089
277.7	4.76772
277.918	3.44924
278.136	6.84471
278.353	3.63293
278.571	2.32927
278.789	5.15457
279.006	1.31207
279.224	3.11829
279.442	5.25359
279.659	3.77341
279.877	2.58524
280.094	5.88574
280.312	1.39025
280.529	3.94345
280.747	1.33263
280.964	3.2346
281.182	6.3776
281.399	3.13539
281.617	4.2702
281.834	3.04743
282.052	2.8652
282.269	3.50327
282.487	2.7843
282.704	2.39885
282.921	2.61802
283.139	3.68065
283.356	4.89267
283.574	4.20534
283.791	2.09427
284.008	5.89284
284.226	2.68949
284.443	3.68234
284.66	4.81761
284.877	3.87481
285.095	2.41208
285.312	1.86976
285.529	1.15661
285.746	1.05588
285.964	2.36221
286.181	1.52374
286.398	2.15756
286.615	3.04701
286.832	2.92734
287.05	0.60361
287.267	2.13747
287.484	2.05015
287.701	2.9556
287.918	2.96477
288.135	3.00205
288.352	1.3628
288.569	1.62707
288.786	2.64519
289.003	2.15528
289.22	3.26395
289.437	1.87371
289.654	3.26215
289.871	3.32837
290.088	3.31713
290.305	2.56087
290.522	2.01601
290.739	2.36088
290.956	3.37332
291.173	4.15761
291.39	3.83349
291.607	2.57609
291.824	2.23434
292.04	1.43707
292.257	3.22043
292.474	3.61367
292.691	2.27938
292.908	1.03423
293.125	1.95514
293.341	1.27888
293.558	5.50465
293.775	2.3814
293.992	2.32149
294.208	0.79118
294.425	1.56897
294.642	2.20736
294.858	2.78415
295.075	0.96688
295.292	2.16604
295.508	2.65136
295.725	4.03145
295.942	2.00559
296.158	1.35007
296.375	2.2564
296.591	1.88494
296.808	1.90191
297.024	2.09174
297.241	2.49155
297.458	2.55745
297.674	0.35186
297.891	2.09722
298.107	1.61379
298.323	1.15231
298.54	2.98683
298.756	1.4249
298.973	0.6819
299.189	3.17342
299.406	1.25247
299.622	3.35057
299.838	3.03781
300.055	2.94737
300.271	0.63901
300.487	1.1163
300.704	1.29152
300.92	0.77909
301.136	4.35863
301.353	3.20752
301.569	2.2511
301.785	2.35709
302.001	2.85738
302.218	2.65127
302.434	2.65867
302.65	0.84169
302.866	1.65365
303.083	4.37093
303.299	4.04696
303.515	2.0466
303.731	2.51613
303.947	0.78485
304.163	1.53285
304.379	2.4331
304.595	2.75629
304.812	1.50803
305.028	1.3581
305.244	1.8349
305.46	2.95554
305.676	3.04194
305.892	3.70197
306.108	2.31117
306.324	1.69773
306.54	3.92873
306.756	2.81036
306.972	2.77654
307.187	1.81529
307.403	3.87049
307.619	1.76105
307.835	3.27871
308.051	3.60741
308.267	1.01758
308.483	3.14521
308.699	2.75045
308.914	2.26351
309.13	2.16555
309.346	0.69651
309.562	1.09164
309.778	0.67941
309.993	2.63133
310.209	1.9345
310.425	1.03554
310.641	1.74093
310.856	1.07947
311.072	1.09649
311.288	2.04218
311.503	2.20435
311.719	0.39861
311.935	0.41781
312.15	2.3303
312.366	2.06201
312.581	2.44742
312.797	2.10199
313.013	2.69874
313.228	1.48703
313.444	2.19166
313.659	1.50784
313.875	2.33382
314.09	2.00647
314.306	3.74931
314.521	2.94151
314.737	2.81235
314.952	2.38376
315.168	1.97069
315.383	2.65598
315.599	2.04082
315.814	1.87258
316.029	3.02112
316.245	0.74216
316.46	0.74685
316.675	3.35215
316.891	3.97689
317.106	4.97196
317.321	2.6768
317.537	2.53184
317.752	2.86624
317.967	2.94041
318.183	1.40358
318.398	1.79594
318.613	3.01046
318.828	3.57448
319.043	3.14088
319.259	1.82198
319.474	2.67654
319.689	3.47585
319.904	0.41637
320.119	2.92632
320.334	2.42456
320.549	1.91618
320.765	3.20303
320.98	2.38558
321.195	3.12713
321.41	1.92206
321.625	3.05668
321.84	4.07825
322.055	4.04845
322.27	1.36093
322.485	1.30863
322.7	2.44701
322.915	3.33922
323.13	1.36451
323.345	3.56349
323.56	2.92344
323.775	2.81499
323.989	2.79438
324.204	2.45982
324.419	3.0862
324.634	0.90674
324.849	2.04139
325.064	4.21085
325.279	3.20603
325.493	2.85811
325.708	3.29504
325.923	1.48962
326.138	1.45281
326.352	3.87136
326.567	3.39149
326.782	1.94184
326.997	1.41308
327.211	2.72895
327.426	2.75319
327.641	1.74637
327.855	0.79517
328.07	2.49825
328.285	3.87911
328.499	1.88103
328.714	2.73309
328.928	3.10815
329.143	2.31664
329.358	3.20467
329.572	3.34761
329.787	3.39408
330.001	4.63541
330.216	0.87926
330.43	3.76239
330.645	4.05354
330.859	3.04223
331.074	1.62297
331.288	2.35635
331.503	3.54652
331.717	1.32659
331.931	2.00731
332.146	2.41086
332.36	4.28577
332.575	2.83596
332.789	2.55713
333.003	2.18324
333.218	3.0145
333.432	2.02232
333.646	2.9464
333.86	3.68385
334.075	3.84259
334.289	1.62615
334.503	1.4776
334.717	2.75539
334.932	2.7393
335.146	3.47992
335.36	1.91996
335.574	2.81552
335.788	2.84193
336.003	3.44982
336.217	2.84835
336.431	2.77151
336.645	1.56931
336.859	1.08043
337.073	2.15922
337.287	2.56235
337.501	1.412
337.715	2.51834
337.929	2.98007
338.143	1.20138
338.357	2.26462
338.571	1.4398
338.785	2.69412
338.999	1.85267
339.213	1.63001
339.427	0.92481
339.641	3.25711
339.855	1.97249
340.069	1.61857
340.283	3.07788
340.497	3.94611
340.711	2.48983
340.924	1.83294
341.138	1.19253
341.352	1.06329
341.566	2.41783
341.78	0.45557
341.993	1.74316
342.207	1.16157
342.421	2.3815
342.635	2.19472
342.848	1.72998
343.062	0.34637
343.276	1.43024
343.49	4.12885
343.703	1.57391
343.917	2.89287
344.131	2.99539
344.344	1.52078
344.558	1.59996
344.771	1.3011
344.985	3.27832
345.199	3.54693
345.412	2.40711
345.626	2.437
345.839	0.77627
346.053	1.12862
346.266	1.11632
346.48	2.73272
346.693	2.31745
346.907	2.54208
347.12	1.32953
347.334	2.44
347.547	2.36611
347.76	1.86676
347.974	3.24277
348.187	2.4221
348.401	1.60883
348.614	1.54249
348.827	1.74949
349.041	2.59241
349.254	0.64383
349.467	2.01551
349.681	1.0215
349.894	1.57042
350.107	3.22663
350.32	3.40794
350.534	0.69495
350.747	1.53392
350.96	1.30293
351.173	1.43112
351.386	1.64452
351.6	1.70954
351.813	1.36716
352.026	1.99118
352.239	0.76987
352.452	1.88015
352.665	2.7107
352.878	1.75967
353.092	4.01408
353.305	2.50905
353.518	2.15455
353.731	1.33996
353.944	3.06584
354.157	1.29985
354.37	1.12765
354.583	1.0373
354.796	0.58791
355.009	3.0376
355.222	1.97877
355.435	2.07396
355.647	2.85703
355.86	1.02854
356.073	1.77631
356.286	1.54568
356.499	2.49521
356.712	2.07815
356.925	2.29412
357.138	2.64001
357.35	1.11496
357.563	1.55609
357.776	1.87572
357.989	1.37248
358.201	2.26202
358.414	1.83577
358.627	2.76201
358.84	1.71737
359.052	0.89603
359.265	0.82586
359.478	2.6563
359.69	-0.31154
359.903	2.32293
360.116	2.38575
360.328	0.3986
360.541	2.33394
360.753	0.94346
360.966	1.18504
361.179	1.2487
361.391	1.20543
361.604	0.91408
361.816	1.16568
362.029	1.13936
362.241	0.92355
362.454	1.01653
362.666	0.89405
362.879	1.48158
363.091	1.34513
363.304	0.91883
363.516	1.49529
363.728	0.59521
363.941	1.85225
364.153	1.0302
364.366	-0.08777
364.578	0.7473
364.79	1.98626
365.003	1.40723
365.215	1.22215
365.427	1.98624
365.639	2.53217
365.852	1.79939
366.064	3.05449
366.276	1.14799
366.488	1.95557
366.701	1.35125
366.913	1.44716
367.125	1.52078
367.337	1.10012
367.549	1.19634
367.762	1.73877
367.974	1.75885
368.186	0.92079
368.398	2.39542
368.61	2.08114
368.822	2.02085
369.034	1.67455
369.246	2.12846
369.458	3.38843
369.67	0.97274
369.882	3.07469
370.094	0.15447
370.306	2.92943
370.518	1.37776
370.73	1.02099
370.942	0.98441
371.154	1.31412
371.366	1.10066
371.578	1.67857
371.79	0.80095
372.002	2.55908
372.214	2.87669
372.425	1.74856
372.637	2.44583
372.849	1.75995
373.061	-0.02594
373.273	1.88585
373.484	1.93365
373.696	2.23885
373.908	-0.06566
374.12	2.39455
374.331	1.86945
374.543	0.84712
374.755	0.86071
374.967	1.61672
375.178	2.18083
375.39	1.26619
375.602	1.6055
375.813	0.5766
376.025	0.53888
376.236	1.53361
376.448	1.56393
376.66	0.97185
376.871	1.10304
377.083	2.22503
377.294	2.3051
377.506	1.03495
377.717	2.40571
377.929	1.55443
378.14	0.79507
378.352	1.85113
378.563	1.73965
378.775	2.35481
378.986	0.92324
379.197	1.4038
379.409	1.14538
379.62	2.09326
379.832	1.75384
380.043	1.28797
380.254	1.64982
380.466	0.57333
380.677	3.57436
380.888	3.28449
381.1	3.3468
381.311	3.05744
381.522	1.35228
381.733	3.75747
381.945	1.35524
382.156	1.65346
382.367	1.18961
382.578	3.49553
382.789	3.43267
383.001	1.21841
383.212	2.42994
383.423	2.46883
383.634	2.44868
383.845	1.81001
384.056	1.24716
384.267	1.4994
384.478	1.25624
384.69	0.70328
384.901	1.90089
385.112	1.80333
385.323	2.6051
385.534	1.83076
385.745	1.64991
385.956	1.90514
386.167	0.71946
386.378	1.87975
386.588	0.61566
386.799	0.90345
387.01	0.10055
387.221	2.07199
387.432	1.18929
387.643	2.97752
387.854	1.27624
388.065	1.09762
388.275	1.41544
388.486	1.15103
388.697	1.2903
388.908	1.23007
389.119	2.35561
389.329	2.80415
389.54	1.55716
389.751	1.70156
389.962	2.34286
390.172	1.60288
390.383	1.0506
390.594	0.96632
390.804	0.91271
391.015	0.8945
391.226	1.48677
391.436	1.78271
391.647	1.59126
391.858	1.81049
392.068	0.21814
392.279	0.51731
392.489	1.34158
392.7	2.21352
392.91	0.61777
393.121	0.83576
393.331	1.67254
393.542	2.22275
393.752	1.80185
393.963	1.38116
394.173	1.34048
394.384	1.84334
394.594	1.32274
394.804	0.52831
395.015	1.56499
395.225	1.81845
395.436	0.56371
395.646	1.82236
395.856	0.80364
396.067	0.50224
396.277	2.26529
396.487	1.61835
396.697	1.30435
396.908	1.99092
397.118	2.03911
397.328	1.59787
397.538	2.15517
397.749	0.8482
397.959	2.00868
398.169	1.92697
398.379	0.47498
398.589	1.97894
398.8	1.51867
399.01	1.30102
399.22	1.24985
399.43	2.93187
399.64	1.13657
399.85	1.81554
400.06	1.37623
400.27	0.93376
400.48	1.49954
400.69	2.49601
400.9	1.06647
401.11	0.92815
401.32	2.06655
401.53	1.07568
401.74	2.66035
401.95	2.13033
402.16	0.79964
402.37	1.79988
402.58	0.98284
402.79	1.96702
403	2.22777
403.209	0.97358
403.419	2.01935
403.629	1.12815
403.839	1.93229
404.049	1.98658
404.258	0.85514
404.468	0.90224
404.678	1.79022
404.888	1.85762
405.097	0.80326
405.307	1.3193
405.517	1.72745
405.727	1.50494
405.936	1.08795
406.146	1.56871
406.356	2.30573
406.565	1.48429
406.775	1.01327
406.984	1.12848
407.194	2.59845
407.404	1.50464
407.613	1.78261
407.823	2.0315
408.032	2.29304
408.242	2.16645
408.451	1.11977
408.661	1.27624
408.87	2.73122
409.08	1.08783
409.289	1.77539
409.499	1.68612
409.708	1.61857
409.918	0.13599
410.127	1.53181
410.336	2.55372
410.546	1.84383
410.755	1.21636
410.964	1.19569
411.174	0.86758
411.383	1.95988
411.592	1.88463
411.802	0.85043
412.011	2.1753
412.22	1.57852
412.429	2.5633
412.639	2.48382
412.848	2.38148
413.057	2.6472
413.266	2.36143
413.475	1.52486
413.685	2.15111
413.894	2.13523
414.103	2.31055
414.312	2.05599
414.521	1.50732
414.73	1.7281
414.939	2.9053
415.148	1.89909
415.357	1.77582
415.566	1.35162
415.776	1.39391
415.985	1.23949
416.194	2.07389
416.403	2.61005
416.611	0.68149
416.82	1.10881
417.029	1.51362
417.238	1.03387
417.447	0.86376
417.656	1.12535
417.865	0.90616
418.074	1.12919
418.283	1.45093
418.492	2.04933
418.7	1.89828
418.909	2.71917
419.118	1.7066
419.327	1.92914
419.536	1.66572
419.744	1.1984
419.953	2.41208
420.162	2.37187
420.371	1.15955
420.579	1.02949
420.788	2.26479
420.997	2.17411
421.205	2.17578
421.414	1.96548
421.623	1.76185
421.831	1.43408
422.04	2.3113
422.249	1.3546
422.457	2.1214
422.666	1.42325
422.874	2.54601
423.083	2.43389
423.291	2.39522
423.5	1.94898
423.708	2.21389
423.917	2.65696
424.125	1.96753
424.334	1.70141
424.542	3.72504
424.751	2.77082
424.959	2.60742
425.167	3.04299
425.376	2.76879
425.584	2.06553
425.793	2.4529
426.001	1.4912
426.209	2.49287
426.418	1.5417
426.626	1.60265
426.834	1.32442
427.042	1.78283
427.251	1.39372
427.459	2.24191
427.667	1.78999
427.875	1.07368
428.084	1.42
428.292	2.40575
428.5	1.98565
428.708	1.21677
428.916	1.19825
429.124	1.82472
429.333	1.53911
429.541	1.5085
429.749	1.83331
429.957	1.62158
430.165	3.00803
430.373	0.86941
430.581	1.82921
430.789	2.50195
430.997	1.482
431.205	1.39418
431.413	1.70493
431.621	1.46374
431.829	2.06866
432.037	1.49866
432.245	2.02094
432.453	1.91419
432.661	1.54072
432.869	2.97652
433.076	1.19854
433.284	1.69933
433.492	2.21791
433.7	2.57382
433.908	1.52874
434.116	1.96477
434.323	1.95393
434.531	1.84553
434.739	2.07204
434.947	2.3319
435.154	2.14346
435.362	1.85222
435.57	1.60119
435.778	1.44209
435.985	1.98892
436.193	1.52054
436.401	2.46548
436.608	1.85315
436.816	1.49934
437.023	2.77639
437.231	2.80524
437.439	1.93009
437.646	2.15959
437.854	2.06739
438.061	2.28375
438.269	1.77096
438.476	2.24634
438.684	2.0308
438.891	1.81743
439.099	1.59105
439.306	1.08664
439.514	1.4444
439.721	2.3393
439.929	1.7127
440.136	2.46033
440.343	2.49569
440.551	1.98942
440.758	3.77985
440.965	2.69393
441.173	2.34879
441.38	1.83617
441.587	2.41494
441.795	1.8873
442.002	2.36437
442.209	2.21701
442.416	2.48652
442.624	2.37197
442.831	2.26359
443.038	1.65038
443.245	1.36557
443.452	1.65966
443.66	2.43132
443.867	1.50889
444.074	1.62447
444.281	1.56485
444.488	1.93017
444.695	1.99159
444.902	1.83223
445.109	2.55777
445.316	2.02162
445.523	1.88118
445.73	1.71322
445.937	2.42545
446.144	2.75508
446.351	2.8309
446.558	1.81575
446.765	3.20858
446.972	3.27023
447.179	2.43756
447.386	3.46772
447.593	2.17195
447.8	3.27935
448.007	2.13832
448.214	2.25635
448.42	1.84492
448.627	2.88465
448.834	1.93029
449.041	1.96214
449.248	1.87785
449.454	2.55301
449.661	2.90018
449.868	1.78756
450.075	1.56002
450.281	0.94065
450.488	1.33889
450.695	1.50919
450.901	1.57426
451.108	1.66867
451.315	2.52976
451.521	1.85989
451.728	2.4508
451.935	1.59166
452.141	1.8368
452.348	1.91155
452.554	1.85891
452.761	1.73402
452.967	2.83293
453.174	2.08594
453.38	2.07229
453.587	1.29202
453.793	1.99663
454	2.53473
454.206	3.14144
454.413	2.66277
454.619	2.28381
454.825	1.60073
455.032	2.4157
455.238	2.62125
455.445	1.33787
455.651	2.21437
455.857	0.99613
456.064	1.85843
456.27	1.82783
456.476	1.95766
456.682	1.26794
456.889	2.29255
457.095	2.40976
457.301	3.38841
457.507	2.02383
457.714	2.10247
457.92	1.81526
458.126	1.60475
458.332	1.84453
458.538	1.65879
458.744	1.82804
458.951	1.94601
459.157	3.38679
459.363	2.44778
459.569	2.24896
459.775	3.13452
459.981	1.96051
460.187	2.58283
460.393	3.00265
460.599	3.45545
460.805	2.70095
461.011	2.488
461.217	3.02608
461.423	2.9404
461.629	2.0175
461.835	2.43469
462.041	1.91853
462.247	3.12338
462.453	2.06273
462.658	2.14442
462.864	2.586
463.07	2.34585
463.276	2.32057
463.482	2.31559
463.688	2.91543
463.893	1.7968
464.099	1.99072
464.305	3.17935
464.511	1.9219
464.716	2.18051
464.922	2.59784
465.128	1.75926
465.333	3.30371
465.539	2.51283
465.745	2.02057
465.95	2.41052
466.156	3.77385
466.362	2.91117
466.567	2.04366
466.773	2.11439
466.978	3.24162
467.184	1.6373
467.389	1.10524
467.595	2.58158
467.8	1.67233
468.006	3.05027
468.211	2.88059
468.417	1.71453
468.622	2.51082
468.828	2.71609
469.033	2.44346
469.239	3.98385
469.444	2.02292
469.649	2.93147
469.855	2.20546
470.06	2.36407
470.266	1.65728
470.471	2.75075
470.676	2.5028
470.881	1.43142
471.087	3.05266
471.292	3.33215
471.497	1.55087
471.703	2.14142
471.908	2.08562
472.113	2.53145
472.318	2.79883
472.523	1.74093
472.729	2.5476
472.934	2.62711
473.139	2.11764
473.344	2.67843
473.549	3.07115
473.754	1.94395
473.959	3.55542
474.164	1.96587
474.369	2.22031
474.575	2.83647
474.78	2.4578
474.985	2.17146
475.19	1.35084
475.395	1.9465
475.6	2.36364
475.804	3.14518
476.009	2.27565
476.214	2.38719
476.419	2.03274
476.624	1.3327
476.829	1.87383
477.034	2.56004
477.239	1.77726
477.444	2.41391
477.648	2.52102
477.853	2.57012
478.058	2.05773
478.263	1.85475
478.468	1.60748
478.672	1.69992
478.877	2.93279
479.082	3.21462
479.287	2.44948
479.491	2.33733
479.696	1.56911
479.901	2.73593
480.105	2.7007
480.31	1.85991
480.515	2.13244
480.719	3.53607
480.924	1.92826
481.128	1.69957
481.333	2.49698
481.538	2.65342
481.742	2.20374
481.947	2.91963
482.151	3.1364
482.356	2.95237
482.56	3.7793
482.765	3.77154
482.969	4.76645
483.174	5.37928
483.378	6.56421
483.582	6.45015
483.787	7.17811
483.991	7.14913
484.196	7.49399
484.4	7.21395
484.604	7.87885
484.809	6.6502
485.013	6.89093
485.217	6.11962
485.422	5.33987
485.626	4.89442
485.83	4.53021
486.034	4.25654
486.239	4.45789
486.443	4.36454
486.647	4.07889
486.851	4.8662
487.055	5.4394
487.26	4.75562
487.464	5.3118
487.668	4.6152
487.872	4.62154
488.076	5.44119
488.28	4.97393
488.484	4.57573
488.688	4.82998
488.892	4.80521
489.096	4.60078
489.3	4.01732
489.504	3.9525
489.708	4.13777
489.912	3.98799
490.116	3.78141
490.32	3.00064
490.524	3.80198
490.728	3.84708
490.932	3.71152
491.136	3.70514
491.34	4.65471
491.544	4.93436
491.748	4.47364
491.951	4.57425
492.155	4.34613
492.359	4.55502
492.563	3.69664
492.767	3.62406
492.97	3.49686
493.174	3.01086
493.378	2.93077
493.582	2.39403
493.785	2.66583
493.989	2.7661
494.193	2.52614
494.396	2.23473
494.6	2.73873
494.804	2.32554
495.007	2.02417
495.211	2.09114
495.414	2.21698
495.618	2.57827
495.822	3.14419
496.025	2.42761
496.229	2.97658
496.432	2.11083
496.636	2.56472
496.839	2.4916
497.043	3.64502
497.246	2.7397
497.45	2.41029
497.653	2.62885
497.856	2.77704
498.06	2.00238
498.263	2.38275
498.467	2.16804
498.67	2.96322
498.873	2.6446
499.077	2.15372
499.28	2.15576
499.483	2.54678
499.686	2.74
499.89	2.49042
500.093	2.74874
500.296	1.96184
500.499	3.25675
500.703	2.42502
500.906	2.54866
501.109	3.41479
501.312	2.43865
501.515	2.3631
501.719	2.616
501.922	3.23366
502.125	2.66446
502.328	2.43818
502.531	1.88901
502.734	2.47328
502.937	1.36027
503.14	2.43414
503.343	1.83879
503.546	2.25084
503.749	1.96971
503.952	2.72723
504.155	1.9406
504.358	2.75914
504.561	2.42756
504.764	1.75021
504.967	2.30793
505.17	2.41842
505.373	3.31634
505.576	2.45263
505.778	2.78117
505.981	2.02602
506.184	3.17005
506.387	1.65478
506.59	3.41378
506.793	3.01988
506.995	2.74113
507.198	1.45056
507.401	2.53285
507.604	2.61152
507.806	1.76278
508.009	2.00379
508.212	2.64222
508.414	2.02755
508.617	1.92407
508.82	2.28613
509.022	3.02553
509.225	2.55502
509.427	1.54446
509.63	3.00236
509.833	2.27275
510.035	2.25238
510.238	1.62683
510.44	2.94473
510.643	1.31967
510.845	3.52769
511.048	2.6162
511.25	2.08196
511.453	2.30229
511.655	2.59998
511.858	2.10719
512.06	2.78235
512.262	2.36149
512.465	2.72656
512.667	2.01589
512.869	1.78873
513.072	2.55561
513.274	2.89279
513.476	2.73944
513.679	2.86944
513.881	1.83084
514.083	3.25965
514.286	2.12084
514.488	2.08842
514.69	1.9892
514.892	1.79465
515.094	2.76759
515.297	2.20724
515.499	2.47764
515.701	2.01108
515.903	3.34513
516.105	3.30869
516.307	2.76841
516.509	1.43907
516.711	1.72481
516.913	2.42779
517.116	2.36072
517.318	2.14685
517.52	2.97488
517.722	2.84385
517.924	1.88833
518.126	2.97162
518.328	2.15494
518.529	3.06463
518.731	3.78324
518.933	2.3222
519.135	2.68385
519.337	3.47586
519.539	2.93272
519.741	1.64437
519.943	2.40573
520.145	2.23235
520.346	2.80783
520.548	2.24202
520.75	2.60198
520.952	2.29006
521.153	2.51883
521.355	2.74553
521.557	1.83829
521.759	2.53204
521.96	2.52554
522.162	1.85805
522.364	3.01504
522.565	1.92801
522.767	2.81618
522.969	3.22991
523.17	2.61243
523.372	2.75371
523.573	1.94719
523.775	2.37594
523.977	1.82886
524.178	3.26013
524.38	1.94759
524.581	2.86772
524.783	2.24951
524.984	2.96174
525.186	2.7208
525.387	3.21035
525.589	2.86998
525.79	2.63156
525.991	2.38575
526.193	3.17325
526.394	2.06005
526.596	3.10097
526.797	3.28184
526.998	2.80987
527.2	2.42464
527.401	3.78885
527.602	3.77452
527.803	5.14251
528.005	4.77278
528.206	5.26073
528.407	5.66939
528.608	5.25209
528.81	5.58989
529.011	4.94368
529.212	6.14873
529.413	5.36142
529.614	4.98367
529.815	5.16755
530.017	4.80013
530.218	4.28606
530.419	3.55548
530.62	3.7379
530.821	3.59468
531.022	2.54203
531.223	3.53241
531.424	3.42436
531.625	3.30983
531.826	3.21686
532.027	3.279
532.228	4.17281
532.429	3.48554
532.63	3.41964
532.831	3.79806
533.032	3.81534
533.233	4.39764
533.433	4.04355
533.634	4.36178
533.835	3.75052
534.036	3.37848
534.237	3.57446
534.438	3.20539
534.638	2.68067
534.839	2.71649
535.04	3.27581
535.241	2.53664
535.441	3.73457
535.642	2.99298
535.843	2.31363
536.043	2.42798
536.244	2.50441
536.445	2.69085
536.645	3.60649
536.846	3.11966
537.047	3.65919
537.247	2.39967
537.448	2.72695
537.648	2.78017
537.849	2.60738
538.049	2.44587
538.25	2.8353
538.451	2.61538
538.651	2.0608
538.851	2.66715
539.052	3.19744
539.252	2.94496
539.453	2.42493
539.653	2.58388
539.854	2.68752
540.054	2.76815
540.254	3.67601
540.455	3.92345
540.655	3.10828
540.855	3.78036
541.056	4.39764
541.256	3.83677
541.456	4.89573
541.657	3.85927
541.857	5.08781
542.057	3.53865
542.257	3.54912
542.458	4.27715
542.658	4.40279
542.858	3.06088
543.058	4.09345
543.258	3.51501
543.458	2.43941
543.659	2.24864
543.859	3.28958
544.059	3.2192
544.259	2.65869
544.459	3.13489
544.659	2.29817
544.859	2.80455
545.059	2.22733
545.259	2.77738
545.459	2.61801
545.659	3.05214
545.859	2.54992
546.059	2.73342
546.259	2.11787
546.459	1.7851
546.659	2.02683
546.859	2.90849
547.059	2.69218
547.258	2.83074
547.458	2.67259
547.658	1.85917
547.858	1.87653
548.058	2.65486
548.258	2.3937
548.457	1.99334
548.657	4.11363
548.857	2.45932
549.057	3.0559
549.256	2.96902
549.456	2.55682
549.656	1.45808
549.855	3.91543
550.055	2.55843
550.255	4.07572
550.454	3.02665
550.654	3.41252
550.853	3.73363
551.053	3.42355
551.253	2.97005
551.452	3.04859
551.652	1.96029
551.851	1.67184
552.051	2.42816
552.25	2.31826
552.45	2.19954
552.649	2.46354
552.849	2.05565
553.048	2.70574
553.248	2.99749
553.447	2.05029
553.646	3.1697
553.846	3.76713
554.045	3.588
554.244	1.94963
554.444	4.00677
554.643	2.07853
554.842	3.79587
555.042	4.38608
555.241	2.58641
555.44	2.37944
555.64	3.00879
555.839	4.10915
556.038	3.43335
556.237	2.56558
556.436	2.6636
556.636	3.17588
556.835	2.37179
557.034	4.09973
557.233	2.82982
557.432	2.09227
557.631	3.65919
557.83	2.81842
558.029	2.46313
558.228	2.65662
558.427	2.27519
558.626	3.25636
558.825	2.33098
559.024	3.2166
559.223	4.23779
559.422	2.81177
559.621	3.28547
559.82	1.21294
560.019	3.06209
560.218	2.70696
560.417	0.91857
560.616	2.65609
560.815	5.33495
561.014	1.87126
561.212	3.77209
561.411	2.98859
561.61	1.71705
561.809	2.73634
562.008	3.80577
562.206	2.82824
562.405	3.28119
562.604	2.64971
562.803	3.02872
563.001	2.83329
563.2	1.9018
563.399	3.37854
563.597	2.06195
563.796	3.14501
563.995	1.86683
564.193	3.29305
564.392	2.49384
564.59	4.44322
564.789	1.5059
564.988	2.4835
565.186	2.76295
565.385	2.41767
565.583	2.29951
565.782	2.62776
565.98	2.31531
566.179	2.52139
566.377	1.69493
566.575	2.04008
566.774	3.29353
566.972	3.28967
567.171	3.90788
567.369	3.461
567.567	2.70648
567.766	2.91861
567.964	1.30317
568.162	3.1597
568.361	3.51453
568.559	2.68977
568.757	3.04576
568.956	2.96696
569.154	2.62302
569.352	3.36322
569.55	2.63584
569.748	2.83673
569.947	2.18566
570.145	2.13789
570.343	1.91557
570.541	3.55554
570.739	1.74016
570.937	2.78708
571.135	2.90904
571.333	3.91314
571.532	3.77173
571.73	2.76505
571.928	3.29655
572.126	2.9191
572.324	2.19217
572.522	3.54181
572.72	4.46673
572.918	2.58161
573.116	2.79719
573.313	2.56086
573.511	2.51853
573.709	2.3971
573.907	3.11703
574.105	2.39168
574.303	1.24809
574.501	1.53482
574.699	2.81984
574.896	2.9827
575.094	2.9802
575.292	1.644
575.49	3.16988
575.688	2.6018
575.885	3.65621
576.083	4.03091
576.281	2.937
576.478	2.25446
576.676	3.39373
576.874	1.91813
577.071	2.61972
577.269	4.76867
577.467	2.851
577.664	2.89182
577.862	3.59903
578.059	2.21626
578.257	3.55758
578.455	2.73973
578.652	2.99446
578.85	1.54615
579.047	3.14649
579.245	2.86895
579.442	3.07368
579.64	3.12485
579.837	1.46515
580.034	5.07444
580.232	2.84076
580.429	2.15885
580.627	3.59606
580.824	4.20751
581.021	3.58884
581.219	2.85156
581.416	2.48379
581.613	4.31498
581.811	4.19382
582.008	2.36095
582.205	3.71039
582.402	3.386
582.6	5.10085
582.797	3.37289
582.994	3.66553
583.191	3.98411
583.388	3.35998
583.586	4.04402
583.783	4.37172
583.98	2.72066
584.177	3.1367
584.374	0.8198
584.571	3.151
584.768	3.23551
584.965	3.15058
585.162	4.13945
585.359	4.80567
585.556	3.40946
585.753	3.49493
585.95	2.07627
586.147	2.59723
586.344	3.95119
586.541	3.01347
586.738	2.396
586.935	3.26383
587.132	2.65068
587.329	4.28175
587.526	3.09169
587.722	7.67577
587.919	2.05977
588.116	3.43513
588.313	4.62607
588.51	5.43358
588.706	2.92437
588.903	3.59627
589.1	4.14155
589.297	5.78338
589.493	3.25878
589.69	3.54514
589.887	2.74878
590.083	2.16617
590.28	2.59804
590.477	4.13278
590.673	3.8259
590.87	4.46501
591.067	2.87039
591.263	3.66875
591.46	3.74696
591.656	3.2499
591.853	4.85086
592.049	2.55915
592.246	2.89603
592.442	4.68969
592.639	4.14752
592.835	2.18885
593.032	3.70098
593.228	2.11645
593.425	1.7486
593.621	1.96781
593.817	3.17973
594.014	2.70562
594.21	3.43327
594.406	4.19326
594.603	3.49207
594.799	2.7136
594.995	0.96802
595.192	4.18196
595.388	2.78317
595.584	2.64049
595.78	1.7591
595.977	5.07688
596.173	4.70142
596.369	2.79426
596.565	2.09211
596.761	1.51607
596.957	3.93586
597.154	2.22963
597.35	2.36213
597.546	2.02846
597.742	3.19482
597.938	3.00707
598.134	2.17986
598.33	3.06123
598.526	4.69291
598.722	3.74186
598.918	5.02004
599.114	4.0143
599.31	2.47966
599.506	3.5457
599.702	2.7768
599.898	3.63856
600.094	4.33067
600.29	4.41973
600.485	4.36126
600.681	3.20853
600.877	4.95641
601.073	3.50455
601.269	5.26829
601.465	4.84381
601.66	2.46502
601.856	1.69482
602.052	4.99139
602.248	2.8319
602.443	1.382
602.639	1.98019
602.835	2.42494
603.03	2.42102
603.226	4.00829
603.422	2.26774
603.617	2.67906
603.813	2.51691
604.009	2.25226
604.204	3.71615
604.4	1.48692
604.595	3.56333
604.791	1.9258
604.986	3.03987
605.182	2.09943
605.377	2.50393
605.573	2.41687
605.768	2.98695
605.964	3.57959
606.159	3.66353
606.355	4.35228
606.55	2.80733
606.746	4.30778
606.941	3.39901
607.136	5.28399
607.332	6.39037
607.527	2.03806
607.722	3.78207
607.918	3.31084
608.113	2.43715
608.308	3.89669
608.503	3.59198
608.699	3.60595
608.894	3.49371
609.089	2.07577
609.284	3.26668
609.479	2.4838
609.675	3.46387
609.87	2.77033
610.065	3.65307
610.26	3.94744
610.455	3.95351
610.65	2.92054
610.845	3.27987
611.04	4.07313
611.235	3.09245
611.43	2.80812
611.625	2.01898
611.82	4.86726
612.015	2.68095
612.21	5.21656
612.405	2.05707
612.6	5.875
612.795	5.20408
612.99	4.60747
613.185	2.62835
613.38	2.89498
613.575	4.22155
613.77	6.74235
613.965	2.18975
614.159	2.59918
614.354	5.16026
614.549	4.98147
614.744	4.6383
614.938	2.88279
615.133	2.15822
615.328	5.10138
615.523	5.16437
615.717	7.17608
615.912	3.29249
616.107	3.95136
616.301	3.50152
616.496	3.00122
616.691	6.09653
616.885	4.62974
617.08	6.7598
617.274	5.61887
617.469	6.48312
617.664	4.71368
617.858	3.14025
618.053	4.27175
618.247	3.74098
618.442	1.20601
618.636	5.31023
618.831	3.60114
619.025	3.12203
619.219	7.35946
619.414	0.33115
619.608	4.05103
619.803	2.70402
619.997	6.55352
620.191	5.3905
620.386	4.82054
620.58	4.22733
620.774	1.98542
620.969	2.12742
621.163	4.23695
621.357	2.37549
621.551	3.54559
621.746	4.38424
621.94	4.01073
622.134	8.88084
622.328	6.55574
622.522	2.41396
622.716	5.58269
622.911	5.27766
623.105	5.27395
623.299	4.59125
623.493	8.22931
623.687	3.17874
623.881	3.84336
624.075	5.13763
624.269	5.54194
624.463	1.93105
624.657	2.12118
624.851	4.85891
625.045	5.24938
625.239	5.1198
625.433	2.89599
625.627	5.85213
625.821	3.14139
626.015	2.93518
626.209	3.85184
626.403	1.53373
626.596	4.27121
626.79	4.59401
626.984	2.00918
627.178	4.33233
627.372	4.38575
627.565	4.66512
627.759	1.8435
627.953	2.41467
628.147	4.35819
628.34	4.64169
628.534	6.56905
628.728	3.49996
628.921	5.44446
629.115	5.01152
629.309	5.24252
629.502	5.25226
629.696	4.48441
629.89	4.1472
630.083	4.44795
630.277	4.81069
630.47	6.69978
630.664	4.03722
630.857	2.35264
631.051	5.39186
631.244	6.03213
631.438	5.85611
631.631	3.31795
631.825	6.04005
632.018	5.30358
632.212	7.00278
632.405	5.95881
632.598	3.52215
632.792	4.61868
632.985	1.30737
633.178	3.5029
633.372	4.19655
633.565	4.17741
633.758	6.18556
633.952	3.15037
634.145	3.18678
634.338	4.38775
634.531	3.82822
634.724	3.30692
634.918	4.40249
635.111	4.10441
635.304	3.70382
635.497	7.25145
635.69	4.80839
635.883	6.21497
636.077	2.51165
636.27	5.07965
636.463	4.64171
636.656	5.31408
636.849	3.80473
637.042	5.04108
637.235	7.34128
637.428	5.62852
637.621	6.00213
637.814	6.87215
638.007	7.31229
638.2	7.06201
638.393	7.96881
638.586	2.8185
638.778	3.95382
638.971	5.12996
639.164	7.41185
639.357	5.71575
639.55	7.22212
639.743	6.21391
639.935	6.1275
640.128	8.4762
640.321	6.08454
640.514	5.52783
640.707	9.60873
640.899	6.93623
641.092	2.62571
641.285	17.11875
641.477	1.62121
641.67	8.74836
641.863	7.46081
642.055	5.65923
642.248	5.57434
642.441	4.90021
642.633	6.28301
642.826	7.59954
643.018	7.72019
643.211	8.61045
643.403	8.51113
643.596	9.06386
643.788	8.67206
643.981	4.82499
644.173	6.97465
644.366	4.83951
644.558	2.92433
644.751	6.56781
644.943	3.44465
645.135	8.90809
645.328	8.74033
645.52	7.20148
645.712	7.45494
645.905	11.33535
646.097	3.9299
646.289	6.43211
646.482	9.3404
646.674	4.74608
646.866	7.59013
647.058	6.59455
647.251	4.03943
647.443	4.59449
647.635	5.43889
647.827	4.00995
648.019	3.99161
648.211	5.94391
648.404	6.01518
648.596	8.98198
648.788	6.41014
648.98	6.64559
649.172	6.37453
649.364	6.35378
649.556	3.04045
649.748	9.98477
649.94	4.36956
650.132	7.27538
650.324	4.0325
650.516	4.61356
650.708	7.97917
650.9	3.44753
651.092	4.74805
651.284	3.2598
651.476	3.8482
651.667	6.66829
651.859	8.36622
652.051	5.91729
652.243	5.79531
652.435	4.92553
652.627	6.5797
652.818	6.76175
653.01	3.12554
653.202	4.21249
653.394	5.42354
653.585	6.76654
653.777	14.58777
653.969	8.46932
654.16	8.17349
654.352	4.18266
654.544	6.31102
654.735	8.12506
654.927	6.50664
655.118	8.93365
655.31	8.01768
655.502	8.21204
655.693	5.31895
655.885	7.84114
656.076	9.51068
656.268	6.46411
656.459	9.12392
656.651	8.63539
656.842	5.33299
657.034	4.83077
657.225	8.1279
657.416	9.17088
657.608	8.26524
657.799	5.6175
657.99	8.19717
658.182	4.46005
658.373	4.73906
658.564	7.51415
658.756	5.96578
658.947	5.33303
659.138	4.00373
659.33	4.73112
659.521	4.03761
659.712	5.27327
659.903	5.08026
660.094	4.36907
660.286	2.87436
660.477	9.19179
660.668	6.91891
660.859	6.01913
661.05	3.27576
661.241	7.07131
661.432	7.1643
661.623	5.83033
661.814	5.25416
662.006	3.08887
662.197	6.95201
662.388	8.59798
662.579	7.08817
662.77	9.21162
662.96	12.04341
663.151	8.15518
663.342	2.96186
663.533	7.41789
663.724	6.26248
663.915	10.02977
664.106	6.53487
664.297	10.8673
664.488	8.33834
664.678	6.03484
664.869	7.99378
665.06	8.27429
665.251	7.60078
665.442	8.00951
665.632	5.00275
665.823	11.29458
666.014	1.10423
666.204	8.47489
666.395	9.86987
666.586	13.46821
666.776	9.45806
666.967	10.87122
667.158	7.66389
667.348	10.30595
667.539	4.76141
667.729	8.5189
667.92	5.27194
668.111	9.14665
668.301	8.76734
668.492	6.10331
668.682	6.61665
668.873	6.50561
669.063	4.74051
669.253	6.80767
669.444	9.16278
669.634	6.93923
669.825	11.62813
670.015	9.30403
670.206	5.27453
670.396	12.06614
670.586	7.04596
670.777	8.18573
670.967	2.60303
671.157	7.26922
671.347	5.96433
671.538	10.89191
671.728	8.41095
671.918	11.73627
672.108	9.46661
672.299	7.31735
672.489	8.63142
672.679	5.94587
672.869	8.76703
673.059	12.2824
673.249	8.74514
673.44	5.88774
673.63	7.04167
673.82	9.91581
674.01	5.45613
674.2	8.71619
674.39	15.09665
674.58	9.18163
674.77	8.28209
674.96	7.52483
675.15	17.69191
675.34	10.22591
675.53	8.23735
675.72	6.97154
675.91	4.45613
676.099	12.01383
676.289	13.57907
676.479	10.08753
676.669	6.79074
676.859	9.22289
677.049	5.33406
677.238	7.69345
677.428	12.13961
677.618	9.0757
677.808	10.4917
677.997	9.07074
678.187	5.09373
678.377	7.53217
678.567	5.88698
678.756	6.30689
678.946	7.24932
679.136	4.40345
679.325	5.43634
679.515	5.54648
679.704	4.35546
679.894	8.86805
680.084	8.09625
680.273	10.44605
680.463	4.98394
680.652	5.04227
680.842	7.02342
681.031	8.96703
681.221	5.00382
681.41	8.34196
681.6	6.93627
681.789	9.60359
681.978	10.70751
682.168	8.22475
682.357	8.81155
682.547	9.67537
682.736	8.75244
682.925	10.99737
683.115	10.48938
683.304	10.23033
683.493	9.07012
683.682	9.50941
683.872	9.27087
684.061	11.64226
684.25	10.24815
684.439	13.22724
684.629	10.32759
684.818	17.61654
685.007	8.02806
685.196	7.95451
685.385	13.45738
685.574	10.60524
685.763	9.59915
685.952	9.06212
686.142	5.97288
686.331	12.38023
686.52	4.37083
686.709	13.27284
686.898	13.17711
687.087	10.73925
687.276	13.50752
687.465	11.83379
687.654	8.01186
687.842	13.21757
688.031	5.02559
688.22	12.52875
688.409	9.67253
688.598	9.81969
688.787	16.31054
688.976	9.45092
689.165	14.61174
689.353	7.84058
689.542	10.49477
689.731	11.84655
689.92	14.75806
690.108	11.88673
690.297	8.43309
690.486	9.8594
690.675	11.54117
690.863	14.94202
691.052	14.8004
691.241	11.49479
691.429	10.63332
691.618	14.69139
691.806	6.72472
691.995	9.79717
692.184	10.2397
692.372	8.58125
692.561	10.65516
692.749	10.15868
692.938	17.07595
693.126	12.01724
693.315	9.98445
693.503	12.56977
693.692	11.78731
693.88	13.66636
694.068	17.38442
694.257	10.4037
694.445	11.3511
694.634	4.95079
694.822	13.82108
695.01	15.0343
695.199	14.51999
695.387	16.2514
695.575	14.74763
695.763	10.27321
695.952	9.74323
696.14	5.74185
696.328	8.89054
696.516	11.15713
696.705	11.35153
696.893	11.71463
697.081	5.60598
697.269	12.66236
697.457	7.56731
697.645	6.07478
697.833	12.41051
698.021	7.31844
698.21	7.62359
698.398	8.84941
698.586	5.63588
698.774	5.56084
698.962	8.43587
699.15	6.01997
699.338	4.77708
699.526	10.22978
699.714	6.77968
699.901	6.89895
700.089	11.65193
700.277	7.23606
700.465	8.7086
700.653	12.11877
700.841	11.20815
701.029	7.54717
701.217	13.77815
701.404	10.96648
701.592	14.82557
701.78	16.83211
701.968	8.92892
702.155	9.80029
702.343	6.47456
702.531	15.16926
702.718	12.29279
702.906	10.0403
703.094	8.58699
703.281	14.33873
703.469	10.44011
703.657	15.42382
703.844	22.26888
704.032	16.88136
704.219	9.56546
704.407	13.07391
704.595	16.24614
704.782	12.82312
704.97	10.12848
705.157	9.84908
705.345	18.07155
705.532	21.06258
705.719	12.53631
705.907	17.04879
706.094	12.30487
706.282	18.21252
706.469	10.61739
706.656	12.22871
706.844	11.56834
707.031	16.2566
707.218	12.36606
707.406	17.59429
707.593	15.54847
707.78	14.56142
707.968	11.6102
708.155	8.67728
708.342	14.54067
708.529	13.74939
708.716	12.93555
708.904	19.34166
709.091	14.99296
709.278	8.7751
709.465	19.04646
709.652	19.56309
709.839	17.69201
710.026	14.20252
710.213	7.22701
710.4	13.86462
710.587	15.9508
710.774	16.54615
710.961	16.96052
711.148	13.75758
711.335	17.31905
711.522	12.67137
711.709	14.34921
711.896	21.27732
712.083	17.36263
712.27	10.07932
712.457	13.62505
712.644	8.00453
712.831	21.89018
713.017	14.0918
713.204	16.73329
713.391	11.64316
713.578	18.12627
713.765	19.14886
713.951	16.175
714.138	26.24103
714.325	17.05235
714.512	13.94985
714.698	11.16267
714.885	20.46667
715.072	15.59995
715.258	14.87756
715.445	12.10656
715.631	20.2665
715.818	4.88416
716.005	11.86172
716.191	16.17626
716.378	13.0917
716.564	17.91034
716.751	10.79589
716.937	12.52127
717.124	19.10183
717.31	11.2983
717.497	20.23556
717.683	11.40621
717.869	24.30698
718.056	12.54809
718.242	17.14334
718.429	14.33077
718.615	10.48802
718.801	15.46826
718.988	19.13681
719.174	17.31291
719.36	13.82787
719.547	20.10746
719.733	16.62788
719.919	16.5369
720.105	18.53677
720.291	14.88555
720.478	17.22432
720.664	14.50656
720.85	12.98914
721.036	28.71238
721.222	22.29196
721.408	15.29561
721.595	24.815
721.781	23.91185
721.967	20.65421
722.153	23.48789
722.339	18.95041
722.525	18.02745
722.711	11.37479
722.897	10.33897
723.083	13.63184
723.269	21.1855
723.455	28.67719
723.641	30.55383
723.827	17.32504
724.012	19.27446
724.198	15.89023
724.384	22.9034
724.57	18.30246
724.756	9.81478
724.942	8.06133
725.127	21.29622
725.313	23.88379
725.499	23.31881
725.685	26.13763
725.87	19.01047
726.056	12.3139
726.242	23.10124
726.428	9.71856
726.613	21.77526
726.799	15.56436
726.985	12.16077
727.17	10.47921
727.356	24.71387
727.541	13.54044
727.727	16.1994
727.913	20.41519
728.098	14.91885
728.284	21.16979
728.469	11.00999
728.655	13.81321
728.84	21.46713
729.026	20.39593
729.211	21.6567
729.397	19.25798
729.582	20.86099
729.767	16.25362
729.953	19.06857
730.138	22.49548
730.323	7.25775
730.509	12.29994
730.694	25.85279
730.879	19.65602
731.065	17.63725
731.25	29.04108
731.435	21.27815
731.621	10.6903
731.806	14.80353
731.991	19.14031
732.176	11.52041
732.361	23.94798
732.547	20.21294
732.732	10.09869
732.917	29.64393
733.102	11.38837
733.287	14.2139
733.472	17.88295
733.657	17.58734
733.842	10.22993
734.027	15.72724
734.212	16.92885
734.397	13.60196
734.582	18.45388
734.767	21.57975
734.952	24.56299
735.137	5.31939
735.322	24.75173
735.507	19.57913
735.692	18.79076
735.877	28.66744
736.062	26.84858
736.247	19.4243
736.431	17.1335
736.616	21.22016
736.801	19.88794
736.986	18.46034
737.171	13.52217
737.355	10.67189
737.54	24.00519
737.725	18.38808
737.909	33.34637
738.094	15.03946
738.279	23.53083
738.463	17.18106
738.648	21.95781
738.833	20.81232
739.017	29.16075
739.202	16.10756
739.386	17.96386
739.571	14.57992
739.756	22.48582
739.94	18.68475
740.125	23.76866
740.309	14.2667
740.494	22.62911
740.678	19.79177
740.863	21.18989
741.047	19.61259
741.231	25.58791
741.416	14.19616
741.6	28.6251
741.785	14.58201
741.969	22.85701
742.153	26.43795
742.338	7.04974
742.522	18.80788
742.706	23.91014
742.89	11.28626
743.075	20.38887
743.259	27.14534
743.443	23.69199
743.627	26.27831
743.812	32.35883
743.996	4.89652
744.18	17.34348
744.364	16.45391
744.548	35.662
744.732	19.05042
744.916	23.85589
745.1	22.15805
745.285	19.51973
745.469	23.33212
745.653	30.14337
745.837	11.18374
746.021	33.57498
746.205	27.85091
746.389	19.11926
746.573	18.11197
746.757	29.6131
746.94	16.48706
747.124	26.85022
747.308	11.93214
747.492	26.57977
747.676	16.94418
747.86	33.9873
748.044	16.74711
748.227	9.43418
748.411	43.44527
748.595	21.5669
748.779	15.00049
748.963	23.59773
749.146	21.01135
749.33	15.37689
749.514	14.40931
749.697	27.15068
749.881	16.31515
750.065	14.08113
750.248	21.6122
750.432	34.99137
750.616	20.52024
750.799	13.19882
750.983	33.55232
751.166	38.78068
751.35	11.94131
751.533	25.35364
751.717	28.12135
751.9	30.75724
752.084	17.70641
752.267	14.91044
752.451	15.07613
752.634	19.49743
752.818	22.91832
753.001	25.50612
753.184	27.87985
753.368	22.83253
753.551	1.22969
753.734	16.63618
753.918	33.91114
754.101	15.98797
754.284	25.51734
754.467	18.75506
754.651	16.30728
754.834	15.28109
755.017	27.34602
755.2	28.67098
755.384	13.91074
755.567	26.38747
755.75	27.3602
755.933	19.32688
756.116	21.81493
756.299	16.01399
756.482	15.71236
756.665	24.55115
756.848	20.93589
757.032	22.86636
757.215	10.91265
757.398	15.78415
757.581	16.27651
757.764	39.80691
757.947	20.35802
758.129	29.68178
758.312	3.12048
758.495	19.16459
758.678	18.73469
758.861	18.28478
759.044	34.36576
759.227	16.2674
759.41	15.36113
759.592	23.78711
759.775	19.93056
759.958	26.48372
760.141	13.0821
760.324	35.50377
760.506	31.15454
760.689	27.13376
760.872	38.8407
761.054	24.49295
761.237	18.96145
761.42	23.82731
761.602	28.17458
761.785	24.29968
761.968	27.92523
762.15	35.2175
762.333	20.15771
762.515	24.26368
762.698	17.89137
762.88	27.63971
763.063	24.85714
763.245	27.24867
763.428	15.56439
763.61	15.02997
763.793	12.01493
763.975	22.10118
764.158	17.21073
764.34	17.09059
764.522	13.84531
764.705	18.13415
764.887	27.74647
765.069	10.19346
765.252	24.36827
765.434	24.92138
765.616	19.82214
765.799	16.95489
765.981	25.44352
766.163	15.27895
766.345	26.23455
766.528	16.32374
766.71	4.72017
766.892	22.04725
767.074	28.66133
767.256	18.28739
767.438	33.22598
767.62	23.79939
767.802	37.34945
767.985	25.86093
768.167	36.23014
768.349	16.97602
768.531	28.01196
768.713	23.71017
768.895	27.844
769.077	23.32615
769.259	41.7404
769.441	60.69893
769.623	30.27516
769.804	35.28442
769.986	33.31856
770.168	41.03971
770.35	50.03175
770.532	34.7521
770.714	40.79556
770.896	41.9644
771.077	14.80998
771.259	43.55883
771.441	34.56677
771.623	47.81568
771.804	56.78122
771.986	14.68478
772.168	26.73378
772.35	42.73983
772.531	56.68146
772.713	32.3409
772.894	46.13079
773.076	29.98486
773.258	26.64409
773.439	43.12333
773.621	51.55943
773.802	20.99854
773.984	27.88885
774.166	35.48975
774.347	50.17199
774.529	46.07541
774.71	11.574
774.891	30.47735
775.073	28.70464
775.254	51.50431
775.436	27.19155
775.617	55.63182
775.799	25.94133
775.98	50.60164
776.161	51.97144
776.343	51.8397
776.524	31.02997
776.705	28.5024
776.886	13.55839
777.068	35.69666
777.249	64.62644
777.43	57.63159
777.611	21.38054
777.793	30.99145
777.974	52.05701
778.155	27.98977
778.336	23.74332
778.517	59.15807
778.698	24.73429
778.879	13.41587
779.061	3.17024
779.242	40.21695
779.423	40.73361
779.604	26.17572
779.785	32.66281
779.966	37.45702
780.147	45.00914
780.328	46.06417
780.509	68.97664
780.69	43.46828
780.871	26.10482
781.051	17.60436
781.232	37.39151
781.413	35.06513
781.594	27.54454
781.775	28.33198
781.956	28.09284
782.137	9.73836
782.317	26.40108
782.498	38.43877
782.679	35.36158
782.86	35.01224
783.04	25.97843
783.221	38.75324
783.402	58.04516
783.583	35.19989
783.763	41.73748
783.944	29.04529
784.124	16.25165
784.305	52.86289
784.486	40.81605
784.666	32.7478
784.847	16.28513
785.027	66.90447
785.208	25.65979
785.388	26.81988
785.569	28.76345
785.749	28.23263
785.93	27.87556
786.11	17.95306
786.291	38.59368
786.471	34.87557
786.652	43.52888
786.832	34.44612
787.012	37.88722
787.193	20.13835
787.373	35.8411
787.553	29.89422
787.734	36.69207
787.914	28.8907
788.094	41.0678
788.275	35.81073
788.455	29.49274
788.635	19.97125
788.815	37.84173
788.995	23.113
789.176	18.76096
789.356	26.70565
789.536	31.91055
789.716	39.19186
789.896	24.7118
790.076	28.53668
790.256	37.19905
790.436	9.6018
790.616	23.92965
790.796	35.99636
790.976	27.66834
791.156	26.23876
791.336	42.5722
791.516	37.63835
791.696	30.65781
791.876	17.23125
792.056	35.56973
792.236	43.07862
792.416	41.47348
792.596	39.54406
792.776	37.97888
792.956	40.22281
793.135	53.82669
793.315	19.28571
793.495	47.07485
793.675	40.05373
793.854	44.99912
794.034	43.56635
794.214	18.84864
794.394	43.37715
794.573	48.74761
794.753	35.062
794.933	23.04291
795.112	35.9887
795.292	44.99086
795.472	56.7276
795.651	18.13445
795.831	32.29352
796.01	29.83898
796.19	29.65267
796.369	33.0066
796.549	38.34806
796.728	30.58944
796.908	21.8186
797.087	22.88788
797.267	31.4368
797.446	20.55702
797.626	39.25359
797.805	39.14676
797.984	22.00569
798.164	41.00016
798.343	22.58044
798.522	37.89823
798.702	33.60929
798.881	19.36274
799.06	31.728
799.239	10.29423
799.419	23.44297
799.598	50.29048
799.777	40.53024
799.956	47.8786
800.136	28.28182
800.315	23.98666
800.494	36.72172
800.673	45.82083
800.852	41.43815
801.031	47.27929
801.21	39.72756
801.389	26.89758
801.568	35.74041
801.747	57.1565
801.926	34.30439
802.105	53.0631
802.284	27.11256
802.463	50.63942
802.642	35.23512
802.821	36.8711
803	49.5902
803.179	43.58104
803.358	48.20418
803.537	27.43559
803.716	39.56341
803.895	25.89881
804.073	31.78375
804.252	25.4055
804.431	38.283
804.61	32.73726
804.789	45.31503
804.967	28.60748
805.146	26.99253
805.325	55.06154
805.503	39.001
805.682	18.95389
805.861	65.20691
806.039	50.13753
806.218	26.67364
806.397	36.02753
806.575	33.53311
806.754	36.14556
806.932	21.39011
807.111	54.46448
807.289	46.28592
807.468	34.2014
807.646	46.51031
807.825	41.56596
808.003	36.4859
808.182	46.33338
808.36	36.53841
808.539	26.04348
808.717	52.64763
808.895	24.90307
809.074	38.5353
809.252	30.9347
809.43	42.93739
809.609	49.3692
809.787	54.49394
809.965	31.084
810.144	33.34771
810.322	31.8114
810.5	39.76093
810.678	31.01028
810.856	61.7659
811.035	49.99289
811.213	45.2734
811.391	51.54499
811.569	35.90044
811.747	76.54964
811.925	49.58712
812.103	25.79556
812.281	31.86116
812.459	60.61984
812.637	59.16607
812.816	48.97125
812.994	60.73017
813.171	51.09628
813.349	42.93141
813.527	51.85595
813.705	54.02838
813.883	67.76627
814.061	50.72513
814.239	64.45036
814.417	69.79519
814.595	41.50592
814.773	39.30291
814.95	42.60303
815.128	41.33652
815.306	35.70809
815.484	33.38627
815.662	24.77316
815.839	21.73501
816.017	27.62333
816.195	56.979
816.372	33.91468
816.55	46.07873
816.728	59.43462
816.905	31.10971
817.083	59.68393
817.261	37.09084
817.438	69.46349
817.616	62.03126
817.793	28.70996
817.971	48.98143
818.148	46.16918
818.326	56.98108
818.503	41.49677
818.681	57.24054
818.858	30.07294
819.036	36.91718
819.213	42.78124
819.391	29.88376
819.568	28.23411
819.745	26.52554
819.923	48.39629
820.1	31.23962
820.277	28.14209
820.455	33.06792
820.632	36.75249
820.809	35.59877
820.986	22.23795
821.164	18.26149
821.341	15.85703
821.518	23.22168
821.695	16.77022
821.872	15.05981
822.05	12.28541
822.227	8.38927
822.404	9.16896
822.581	11.12546
822.758	8.56057
822.935	9.09721
823.112	10.94676
823.289	7.36221
823.466	10.61623
823.643	9.38814
823.82	12.58088
823.997	10.47479
824.174	13.48846
824.351	18.69288
824.528	18.08901
824.705	15.22924
824.882	18.17126
825.059	24.95128
825.236	16.60982
825.412	17.98562
825.589	23.05319
825.766	33.99209
825.943	19.59589
826.12	24.70303
826.296	15.75422
826.473	21.14954
826.65	21.48983
826.827	28.82662
827.003	16.89495
827.18	19.39807
827.357	23.66561
827.533	19.37069
827.71	8.93661
827.887	16.11131
828.063	19.32717
828.24	15.64614
828.416	22.7852
828.593	17.07409
828.769	26.23421
828.946	28.35446
829.122	29.89328
829.299	29.69571
829.475	14.16607
829.652	25.63317
829.828	48.14535
830.005	28.1177
830.181	39.2077
830.357	25.88962
830.534	43.03419
830.71	31.72898
830.886	42.51497
831.063	39.84638
831.239	51.7982
831.415	19.6203
831.592	56.3071
831.768	31.73861
831.944	26.50366
832.12	54.17076
832.296	50.22842
832.473	45.74577
832.649	31.83052
832.825	42.47259
833.001	24.66979
833.177	41.37027
833.353	36.55844
833.529	18.9037
833.705	29.80471
833.881	21.41023
834.058	19.21799
834.234	21.93372
834.41	21.37751
834.586	15.23005
834.761	20.31328
834.937	22.52868
835.113	22.83658
835.289	18.84462
835.465	25.23097
835.641	20.55
835.817	22.90154
835.993	45.45516
836.169	18.28436
836.344	32.6915
836.52	36.69611
836.696	39.56919
836.872	23.3805
837.048	75.15048
837.223	26.32604
837.399	61.53854
837.575	48.46268
837.75	45.82225
837.926	64.89884
838.102	97.78295
838.277	77.17646
838.453	95.25731
838.628	93.66823
838.804	36.14884
838.98	96.73063
839.155	45.79233
839.331	63.54606
839.506	45.6455
839.682	44.26573
839.857	61.03095
840.033	67.61242
840.208	33.12283
840.384	12.44056
840.559	33.34072
840.734	54.62695
840.91	75.17709
841.085	45.46093
841.26	41.91607
841.436	38.97747
841.611	36.56485
841.786	57.92069
841.962	77.43936
842.137	49.22718
842.312	27.16494
842.487	38.78042
842.663	34.64663
842.838	40.55824
843.013	138.51349
843.188	71.12702
843.363	66.07311
843.538	117.73413
843.714	127.49368
843.889	121.21884
844.064	120.05499
844.239	100.76206
844.414	132.34217
844.589	82.9104
844.764	139.59759
844.939	138.09795
845.114	175.53729
845.289	164.01482
845.464	172.98062
845.639	140.97276
845.814	67.97211
845.989	82.59757
846.163	93.83196
846.338	113.67111
846.513	153.77253
846.688	105.26362
846.863	103.5978
847.038	92.74365
847.212	100.35536
847.387	108.45592
847.562	107.14799
847.737	130.75332
847.911	52.87209
848.086	70.75934
848.261	218.90916
848.435	93.75981
848.61	148.57828
848.785	66.02938
848.959	142.41682
849.134	179.71459
849.308	231.41928
849.483	105.75499
849.658	172.4051
849.832	92.37691
850.007	77.54089
850.181	241.36071
850.356	82.48189
850.53	191.15325
850.705	74.94519
850.879	41.68395
851.053	96.18568
851.228	86.8814
851.402	122.1331
851.577	155.76948
851.751	169.49914
851.925	108.09459
852.099	49.59025
852.274	78.23569
852.448	100.39417
852.622	138.45731
852.797	105.17044
852.971	122.0466
853.145	123.7898
853.319	214.77053
853.493	173.89738
853.668	94.75584
853.842	210.26869
854.016	155.04691
854.19	189.52029
854.364	116.5295
854.538	133.63841
854.712	158.60291
854.886	112.29319
855.06	92.3449
855.234	38.22163
855.408	170.74615
855.582	154.2785
855.756	168.41314
855.93	199.11213
856.104	117.69777
856.278	157.5275
856.452	104.57444
856.626	143.49312
856.8	218.08796
856.973	135.39114
857.147	130.70407
857.321	137.26095
857.495	148.80325
857.669	117.42062
857.842	100.91169
858.016	167.67188
858.19	74.54213
858.364	267.07317
858.537	105.14278
858.711	121.24563
858.885	102.28845
859.058	85.71208
859.232	53.59701
859.405	49.8525
859.579	157.48877
859.753	133.05751
859.926	83.64674
860.1	62.32264
860.273	99.49387
860.447	191.32812
860.62	103.15003
860.794	199.09242
860.967	123.05347
861.141	165.72453
861.314	239.88
861.487	130.95049
861.661	179.68741
861.834	195.54416
862.008	175.26571
862.181	112.1002
862.354	122.36972
862.528	141.134
862.701	95.14029
862.874	60.68469
863.047	92.50838
863.221	92.17667
863.394	45.20455
863.567	177.30862
863.74	42.74293
863.913	155.74382
864.087	142.62454
864.26	156.57429
864.433	110.24164
864.606	217.61507
864.779	119.21616
864.952	58.18922
865.125	98.66151
865.298	108.56337
865.471	110.39287
865.644	189.16477
865.817	167.52482
865.99	163.33366
866.163	191.89473
866.336	98.22002
866.509	103.96309
866.682	102.35773
866.855	175.74775
867.028	66.65567
867.2	143.14108
867.373	38.81075
867.546	119.07925
867.719	225.33179
867.892	129.63987
868.064	80.18784
868.237	126.95282
868.41	123.2997
868.583	67.80664
868.755	62.58791
868.928	108.98891
869.101	237.71691
869.273	172.51805
869.446	137.00341
869.619	174.82228
869.791	118.66375
869.964	173.66843
870.136	168.05764
870.309	127.1083
870.481	118.56654
870.654	56.44891
870.826	135.63103
870.999	91.49472
871.171	150.96986
871.344	90.98691
871.516	118.51475
871.689	81.41005
871.861	125.28864
872.033	85.01523
872.206	102.05094
872.378	170.48087
872.55	103.37515
872.723	64.4007
872.895	110.43148
873.067	161.63961
873.24	170.18409
873.412	93.82884
873.584	109.22403
873.756	102.04836
873.928	125.6941
874.101	130.57419
874.273	138.1354
874.445	48.43827
874.617	67.45647
874.789	126.32276
874.961	97.80445
875.133	141.26094
875.305	111.31163
875.477	75.70359
875.649	56.41486
875.821	77.74041
875.993	182.9434
876.165	77.94078
876.337	125.0703
876.509	116.09782
876.681	127.06007
876.853	123.16371
877.025	131.091
877.197	78.54449
877.369	74.09724
877.541	146.56216
877.712	31.96983
877.884	78.16223
878.056	127.52665
878.228	71.99864
878.4	139.41435
878.571	74.23496
878.743	50.94965
878.915	112.54537
879.086	70.28305
879.258	90.54747
879.43	76.72627
879.601	69.46891
879.773	78.73426
879.945	17.5844
880.116	30.35427
880.288	18.37985
880.459	23.07087
880.631	15.10001
880.802	19.96796
880.974	19.09178
881.145	11.84798
881.317	17.66501
881.488	12.14105
881.66	13.37887
881.831	11.75784
882.002	18.32394
882.174	11.47921
882.345	16.85483
882.517	5.85287
882.688	20.8805
882.859	14.82373
883.03	26.685
883.202	24.88562
883.373	20.02439
883.544	20.02132
883.715	34.71741
883.887	30.54143
884.058	23.65363
884.229	37.51044
884.4	37.75677
884.571	45.88959
884.742	34.04003
884.914	37.71766
885.085	57.19562
885.256	79.00085
885.427	61.15608
885.598	75.99642
885.769	75.26109
885.94	73.56885
886.111	51.25502
886.282	90.83974
886.453	69.39433
886.624	53.94936
886.795	95.39973
886.966	73.84316
887.136	99.65953
887.307	70.19047
887.478	139.33486
887.649	106.42302
887.82	121.07199
887.991	96.7625
888.161	127.1478
888.332	119.56928
888.503	54.64789
888.674	158.97259
888.844	194.70364
889.015	139.54149
889.186	70.9454
889.356	171.53834
889.527	56.35987
889.698	246.45563
889.868	92.66219
890.039	140.62962
890.209	111.60889
890.38	142.55428
890.551	127.68055
890.721	184.29866
890.892	146.34062
891.062	108.64877
891.233	130.05833
891.403	104.31337
891.574	70.59234
891.744	107.15232
891.914	117.95061
892.085	117.93567
892.255	37.01848
892.425	167.99923
892.596	130.55326
892.766	142.2514
892.936	171.78101
893.107	146.0526
893.277	80.30992
893.447	62.29138
893.618	42.01323
893.788	101.93472
893.958	57.71729
894.128	50.73429
894.298	66.35606
894.468	85.69482
894.639	38.68776
894.809	23.86673
894.979	41.36
895.149	49.89445
895.319	39.45201
895.489	60.16343
895.659	73.90098
895.829	45.1477
895.999	45.52889
896.169	32.54487
896.339	43.77412
896.509	90.55545
896.679	94.35868
896.849	101.72783
897.019	134.71383
897.189	104.39555
897.358	94.42046
897.528	143.43707
897.698	46.38327
897.868	120.85478
898.038	209.01447
898.208	212.60916
898.377	54.40009
898.547	205.24216
898.717	272.47962
898.886	115.17904
899.056	221.50414
899.226	300.12722
899.395	178.13287
899.565	264.37716
899.735	170.40388
899.904	238.72711
900.074	231.8229
900.244	97.64764
900.413	360.41558
900.583	79.50256
900.752	179.27691
900.922	266.85723
901.091	18.80481
901.261	238.92837
901.43	197.04924
901.599	199.52208
901.769	493.151
901.938	253.45185
902.108	229.20086
902.277	287.3126
902.446	90.87478
902.616	100.86734
902.785	129.65758
902.954	237.53018
903.124	157.15428
903.293	124.79503
903.462	68.69455
903.631	103.94204
903.801	79.50293
903.97	38.80185
904.139	64.44498
904.308	49.64814
904.477	39.223
904.646	22.66886
904.816	36.02853
904.985	54.84303
905.154	83.19328
