Data from WindowProjectSample_Transmission__28__00028.txt Node

Date: Sat May 03 15:30:13 EDT 2025
User: jessi
Spectrometer: SR400872
Trigger mode: 0
Integration Time (sec): 5.000010E-1
Scans to average: 6
Electric dark correction enabled: true
Nonlinearity correction enabled: true
Boxcar width: 0
XAxis mode: Wavelengths
Number of Pixels in Spectrum: 3648
>>>>>Begin Spectral Data<<<<<
184.909	19035.7477
185.132	2661.31752
185.355	24118.17082
185.578	-8279.3899
185.801	277.31725
186.024	-1528.38629
186.247	873.70421
186.47	1891.71856
186.693	50.92558
186.916	-1904.74712
187.139	-2623.44273
187.362	1649.57405
187.585	3135.0876
187.808	-3346.66795
188.031	-1702.81527
188.254	-1207.39044
188.476	-784.93511
188.699	2675.10732
188.922	-874.94038
189.145	-9836.54533
189.368	-333.33673
189.591	-1248.21085
189.813	-1828.12112
190.036	1237.13419
190.259	1608.95481
190.482	604.81092
190.705	10438.51548
190.927	-972.65666
191.15	3493.67216
191.373	2315.57269
191.595	-2302.59912
191.818	2489.03547
192.041	-268.54168
192.263	2991.54803
192.486	1725.94502
192.709	-5441.83014
192.931	2832.5067
193.154	-6335.04668
193.377	193638.0755
193.599	1246.71609
193.822	1682.6218
194.044	-2093.64466
194.267	460.7156
194.489	33.05203
194.712	1498.81084
194.934	3462.43765
195.157	-14927.12109
195.379	685.3118
195.602	2093.38586
195.824	1921.8916
196.047	2462.8241
196.269	3063.79526
196.492	3207.23661
196.714	2825.67134
196.936	1199.12534
197.159	1388.62774
197.381	-2238.46392
197.604	-864.62766
197.826	6549.51229
198.048	2970.64118
198.271	4222.83935
198.493	2024.43094
198.715	-6343.09594
198.938	-530.63658
199.16	1864.06209
199.382	1471.09498
199.604	-684.7891
199.827	9260.61208
200.049	1045.21138
200.271	-3009.0105
200.493	-52763.89593
200.715	2375.38279
200.938	6674.56615
201.16	-7116.2885
201.382	-2738.14341
201.604	-1986.16993
201.826	6297.45594
202.048	850.28158
202.27	-16396.66046
202.492	4820.17686
202.715	-1147.70157
202.937	4548.43728
203.159	-2289.05683
203.381	885.02704
203.603	-3603.76064
203.825	-2652.51112
204.047	3498.59544
204.269	-2199.24871
204.491	2221.71315
204.713	1838.94135
204.935	16137.42693
205.156	1516.46219
205.378	-8123.47517
205.6	-4278.43364
205.822	8831.22207
206.044	-595.50227
206.266	4079.49956
206.488	1112.1734
206.71	29018.05467
206.932	2293.64359
207.153	-5202.15527
207.375	-1807.02659
207.597	8567.07956
207.819	4087.84965
208.041	2227.94205
208.262	-2508.72179
208.484	-1154.46726
208.706	-2433.19509
208.927	27878.35458
209.149	1044.85619
209.371	-6552.48913
209.593	1588.10324
209.814	5257.89048
210.036	-2864.14504
210.258	-4701.3363
210.479	-1315.442
210.701	977.60738
210.922	6909.18786
211.144	-1241.64208
211.366	-6152.05881
211.587	-609.81119
211.809	9645.7265
212.03	-1191.41814
212.252	-1662.47989
212.473	793.35079
212.695	-1976.04023
212.916	3028.68865
213.138	3256.23206
213.359	-1979.8556
213.581	6409.75461
213.802	-1646.95797
214.024	17032.91297
214.245	-3102.07226
214.466	-308.09814
214.688	1664.41066
214.909	972.60371
215.131	-98123.2971
215.352	1508.59759
215.573	2514.51359
215.795	3098.94933
216.016	4390.78518
216.237	-629.61576
216.459	7016.6188
216.68	99590.58259
216.901	-80323.69596
217.122	2260.83006
217.344	6469.20906
217.565	-58769.98409
217.786	1557.2416
218.007	1837.08871
218.228	-1005.77356
218.45	-1197.75855
218.671	-1083.24281
218.892	1120.20677
219.113	-19016.34273
219.334	-312.50479
219.555	-4900.85003
219.776	1657.83572
219.997	3497.88592
220.219	1090.13786
220.44	2191.91966
220.661	-3012.75568
220.882	3238.6593
221.103	-1328.67594
221.324	997.2413
221.545	2269.1972
221.766	-6023.04047
221.987	4224.56024
222.208	-1801.40357
222.429	3503.41882
222.65	-70.15596
222.87	-584.15067
223.091	7281.12601
223.312	2335.88642
223.533	6926.69302
223.754	1856.41305
223.975	1424.30943
224.196	-11594.88065
224.417	1074.65743
224.637	934.04484
224.858	-643.18746
225.079	6559.78402
225.3	582.6588
225.521	2067.75309
225.741	1543.62122
225.962	790.17189
226.183	285.14995
226.404	672.45094
226.624	623.71756
226.845	375.29024
227.066	414.85477
227.286	208.21434
227.507	93.92382
227.728	84.74622
227.948	130.62267
228.169	36.18525
228.389	50.09055
228.61	25.63532
228.831	34.96026
229.051	4.61366
229.272	23.24847
229.492	32.22286
229.713	8.5695
229.933	24.08264
230.154	18.48957
230.374	31.7715
230.595	24.33178
230.815	18.00259
231.036	22.9571
231.256	-4.60181
231.477	43.41603
231.697	24.21592
231.917	25.83324
232.138	36.29704
232.358	75.79634
232.579	63.91633
232.799	11.7529
233.019	66.62547
233.24	79.30153
233.46	25.68377
233.68	40.31621
233.901	31.41818
234.121	18.56069
234.341	6.17927
234.561	-4.11425
234.782	16.49968
235.002	47.40586
235.222	-2.93284
235.442	40.80217
235.662	21.52414
235.883	43.37542
236.103	38.76354
236.323	26.82506
236.543	17.63946
236.763	30.58798
236.983	27.83788
237.203	30.49446
237.423	43.29841
237.643	62.21353
237.864	55.17132
238.084	12.06552
238.304	22.78564
238.524	33.54677
238.744	29.94111
238.964	45.89294
239.184	43.07596
239.404	44.46272
239.624	24.13451
239.843	41.48686
240.063	23.50822
240.283	17.10392
240.503	17.79944
240.723	15.78251
240.943	9.3133
241.163	13.65972
241.383	9.62433
241.603	4.90031
241.822	6.19579
242.042	4.35774
242.262	5.87066
242.482	6.70899
242.702	7.79594
242.921	2.48533
243.141	5.80796
243.361	4.6325
243.581	7.09697
243.8	6.71009
244.02	3.81605
244.24	7.66681
244.459	6.86964
244.679	13.94815
244.899	9.28948
245.118	10.14782
245.338	8.88958
245.558	11.07983
245.777	6.4697
245.997	6.76552
246.216	7.43169
246.436	4.00058
246.655	2.87075
246.875	2.51997
247.094	4.94971
247.314	1.41818
247.533	2.77814
247.753	3.43269
247.972	2.76676
248.192	1.14296
248.411	1.81823
248.631	3.12621
248.85	4.1158
249.07	2.85107
249.289	5.40518
249.508	3.92128
249.728	6.20886
249.947	6.43527
250.166	7.21204
250.386	3.97923
250.605	5.59823
250.824	8.77318
251.044	6.30431
251.263	20.60421
251.482	10.57175
251.701	10.15359
251.921	0.23709
252.14	3.03915
252.359	3.68682
252.578	7.78304
252.798	2.70351
253.017	7.54171
253.236	4.00407
253.455	5.24412
253.674	9.86207
253.893	4.48985
254.112	6.90971
254.331	8.89023
254.551	8.15482
254.77	4.00762
254.989	11.89088
255.208	9.36651
255.427	13.41115
255.646	10.71242
255.865	18.94361
256.084	7.02788
256.303	8.48955
256.522	11.69213
256.741	2.98558
256.96	2.66221
257.179	6.77898
257.397	8.49756
257.616	5.15214
257.835	4.72568
258.054	12.29248
258.273	7.47327
258.492	9.1596
258.711	5.0656
258.93	2.16139
259.148	3.13785
259.367	3.53041
259.586	4.42842
259.805	2.13484
260.023	4.21041
260.242	3.44066
260.461	2.24857
260.68	1.13594
260.898	3.79716
261.117	1.36289
261.336	0.94538
261.554	3.40861
261.773	3.40125
261.992	0.41914
262.21	3.38118
262.429	3.55572
262.648	6.24228
262.866	7.25366
263.085	4.67142
263.303	4.06525
263.522	7.50262
263.74	7.51449
263.959	13.10754
264.178	6.66327
264.396	6.17923
264.615	4.47328
264.833	10.27545
265.051	8.66967
265.27	8.14308
265.488	9.38496
265.707	5.3754
265.925	9.08854
266.144	3.86778
266.362	5.14236
266.58	5.19998
266.799	4.06534
267.017	5.37599
267.235	4.59549
267.454	2.90918
267.672	1.87993
267.89	3.91259
268.109	4.34891
268.327	3.83031
268.545	0.77632
268.763	3.66878
268.982	1.71332
269.2	4.3853
269.418	2.54583
269.636	2.17426
269.854	3.5775
270.073	2.80218
270.291	1.37628
270.509	1.59278
270.727	3.59869
270.945	6.32329
271.163	6.40411
271.381	1.45036
271.599	2.46789
271.817	4.64829
272.036	1.78797
272.254	2.78182
272.472	2.12605
272.69	2.12674
272.908	2.13148
273.126	3.94842
273.344	4.64765
273.562	1.56067
273.779	2.31267
273.997	3.43766
274.215	3.9664
274.433	2.97652
274.651	3.76427
274.869	4.05621
275.087	2.42944
275.305	3.68771
275.523	2.1104
275.74	2.90743
275.958	4.90806
276.176	7.17295
276.394	2.38146
276.612	2.75396
276.829	3.21084
277.047	2.28202
277.265	2.76453
277.483	3.23599
277.7	4.05847
277.918	2.85697
278.136	5.63202
278.353	2.78173
278.571	1.25107
278.789	4.47887
279.006	0.73267
279.224	2.73055
279.442	4.5872
279.659	2.93872
279.877	2.08347
280.094	5.06401
280.312	1.04265
280.529	2.862
280.747	0.81884
280.964	2.28654
281.182	5.45668
281.399	2.6073
281.617	3.50149
281.834	2.39672
282.052	2.10655
282.269	2.58934
282.487	2.27642
282.704	1.87996
282.921	2.05566
283.139	2.73048
283.356	3.81544
283.574	3.37425
283.791	1.86147
284.008	4.63517
284.226	2.49173
284.443	2.61212
284.66	3.67434
284.877	3.04276
285.095	2.17818
285.312	1.37813
285.529	1.16762
285.746	0.72267
285.964	1.74722
286.181	1.20614
286.398	1.86573
286.615	2.37112
286.832	2.2803
287.05	0.75261
287.267	1.64028
287.484	1.82129
287.701	2.46684
287.918	2.2684
288.135	2.30566
288.352	1.18693
288.569	1.20578
288.786	2.36376
289.003	1.8435
289.22	2.74714
289.437	1.65677
289.654	2.76547
289.871	2.84216
290.088	2.67886
290.305	1.96563
290.522	1.51886
290.739	1.92459
290.956	3.09453
291.173	3.43949
291.39	3.29769
291.607	2.30111
291.824	1.73844
292.04	1.0871
292.257	2.53856
292.474	3.04187
292.691	1.76287
292.908	1.04223
293.125	1.60304
293.341	0.96505
293.558	4.71478
293.775	1.81534
293.992	1.95999
294.208	0.85927
294.425	1.15985
294.642	1.61124
294.858	2.01394
295.075	0.68302
295.292	1.76613
295.508	2.26025
295.725	3.38734
295.942	1.57136
296.158	1.17531
296.375	1.93854
296.591	1.47335
296.808	1.59547
297.024	1.7789
297.241	2.08416
297.458	2.22273
297.674	0.20994
297.891	1.72572
298.107	1.32397
298.323	0.95981
298.54	2.60917
298.756	1.11233
298.973	0.59128
299.189	2.71227
299.406	1.14838
299.622	2.71444
299.838	2.49721
300.055	2.41328
300.271	0.71788
300.487	0.87929
300.704	1.09561
300.92	0.73866
301.136	3.63194
301.353	2.47348
301.569	1.78342
301.785	2.04384
302.001	2.52356
302.218	2.19132
302.434	2.13637
302.65	0.56564
302.866	1.5906
303.083	3.49485
303.299	3.36267
303.515	1.76242
303.731	1.94988
303.947	0.68671
304.163	1.13739
304.379	1.99818
304.595	2.27167
304.812	1.35525
305.028	1.14777
305.244	1.42314
305.46	2.57526
305.676	2.63057
305.892	3.09501
306.108	1.89243
306.324	1.45689
306.54	3.28757
306.756	2.54356
306.972	2.25182
307.187	1.48974
307.403	3.24887
307.619	1.26137
307.835	2.65847
308.051	3.23043
308.267	0.56063
308.483	2.56153
308.699	2.28535
308.914	2.04228
309.13	1.69838
309.346	0.56861
309.562	0.95254
309.778	0.48879
309.993	2.32147
310.209	1.87462
310.425	0.81586
310.641	1.64097
310.856	0.90003
311.072	0.85055
311.288	1.65063
311.503	1.84337
311.719	0.40466
311.935	0.26698
312.15	2.05217
312.366	1.7592
312.581	2.34029
312.797	1.89466
313.013	2.31875
313.228	1.42584
313.444	2.04342
313.659	1.31282
313.875	2.07073
314.09	1.71621
314.306	2.91204
314.521	2.64519
314.737	2.52728
314.952	2.15948
315.168	1.62956
315.383	2.4856
315.599	1.61323
315.814	1.58515
316.029	2.33211
316.245	0.71883
316.46	0.70107
316.675	2.95923
316.891	3.60143
317.106	4.31398
317.321	2.67344
317.537	2.34551
317.752	2.67114
317.967	2.4976
318.183	1.19836
318.398	1.56819
318.613	2.74358
318.828	3.24613
319.043	2.71012
319.259	1.5273
319.474	2.27116
319.689	2.76538
319.904	0.38538
320.119	2.3306
320.334	2.29751
320.549	1.66696
320.765	2.74668
320.98	2.14316
321.195	2.91673
321.41	1.92045
321.625	2.65026
321.84	3.62202
322.055	3.53681
322.27	1.2928
322.485	1.08331
322.7	2.06937
322.915	3.05454
323.13	1.18396
323.345	3.31547
323.56	2.68601
323.775	2.54519
323.989	2.41468
324.204	2.0948
324.419	2.70597
324.634	0.86166
324.849	1.79124
325.064	4.23863
325.279	2.9694
325.493	2.54407
325.708	2.82146
325.923	1.18594
326.138	1.36154
326.352	3.36194
326.567	2.76386
326.782	1.76073
326.997	1.27104
327.211	2.29086
327.426	2.3467
327.641	1.52342
327.855	0.7203
328.07	2.43503
328.285	3.34946
328.499	1.51594
328.714	2.367
328.928	2.61409
329.143	2.15718
329.358	2.81234
329.572	2.85184
329.787	3.2178
330.001	4.34354
330.216	0.79961
330.43	3.50183
330.645	3.58153
330.859	2.53867
331.074	1.42276
331.288	2.2495
331.503	3.03881
331.717	1.16542
331.931	1.96505
332.146	1.92838
332.36	3.39591
332.575	2.50215
332.789	2.05306
333.003	1.78546
333.218	2.62987
333.432	1.69349
333.646	2.50002
333.86	3.48277
334.075	3.50839
334.289	1.68505
334.503	1.39339
334.717	2.41159
334.932	2.48223
335.146	3.23132
335.36	1.63357
335.574	2.44486
335.788	2.2177
336.003	3.18834
336.217	2.66145
336.431	2.52967
336.645	1.4333
336.859	0.99608
337.073	1.76417
337.287	2.12079
337.501	0.99865
337.715	2.15973
337.929	2.66534
338.143	1.28434
338.357	2.01958
338.571	1.12198
338.785	2.33996
338.999	1.44457
339.213	1.65853
339.427	0.67974
339.641	2.99011
339.855	1.9238
340.069	1.54873
340.283	2.96371
340.497	3.60402
340.711	2.42256
340.924	1.57284
341.138	1.10474
341.352	0.83382
341.566	2.11767
341.78	0.68465
341.993	1.4859
342.207	1.1538
342.421	2.21951
342.635	2.08219
342.848	1.45473
343.062	0.12308
343.276	1.37579
343.49	3.7149
343.703	1.50033
343.917	2.61447
344.131	2.69272
344.344	1.3558
344.558	1.5676
344.771	1.26909
344.985	3.23255
345.199	3.16348
345.412	2.09533
345.626	2.30715
345.839	0.62355
346.053	1.03691
346.266	0.97865
346.48	2.59203
346.693	2.24602
346.907	2.43688
347.12	1.24971
347.334	2.16048
347.547	2.29538
347.76	1.62129
347.974	2.89532
348.187	2.29303
348.401	1.45316
348.614	1.40033
348.827	1.70732
349.041	2.40774
349.254	0.55122
349.467	1.71291
349.681	0.76496
349.894	1.4576
350.107	3.01551
350.32	3.11477
350.534	0.55479
350.747	1.47517
350.96	1.10498
351.173	1.2496
351.386	1.71447
351.6	1.51729
351.813	1.20058
352.026	1.79762
352.239	0.7328
352.452	1.44237
352.665	2.28301
352.878	1.6074
353.092	3.70579
353.305	2.40299
353.518	2.12015
353.731	1.14256
353.944	3.02944
354.157	1.12908
354.37	1.08262
354.583	1.02567
354.796	0.48678
355.009	2.76966
355.222	1.78595
355.435	1.87496
355.647	2.81873
355.86	0.89656
356.073	1.65904
356.286	1.37456
356.499	2.32248
356.712	1.74804
356.925	2.08129
357.138	2.41572
357.35	0.97814
357.563	1.45477
357.776	1.78536
357.989	1.29671
358.201	2.1888
358.414	1.60206
358.627	2.72654
358.84	1.47114
359.052	0.83035
359.265	0.81441
359.478	2.63289
359.69	-0.3217
359.903	2.00221
360.116	2.21621
360.328	0.32095
360.541	2.3499
360.753	0.80319
360.966	1.0228
361.179	1.2088
361.391	1.12157
361.604	0.67439
361.816	1.11489
362.029	0.92045
362.241	0.97913
362.454	0.99472
362.666	0.82848
362.879	1.38235
363.091	1.29671
363.304	0.84231
363.516	1.44466
363.728	0.52006
363.941	1.95641
364.153	0.75773
364.366	-0.04134
364.578	0.78712
364.79	1.73279
365.003	1.33975
365.215	1.21002
365.427	1.83275
365.639	2.42312
365.852	1.72278
366.064	3.26533
366.276	1.12958
366.488	1.87314
366.701	1.08618
366.913	1.36469
367.125	1.41564
367.337	1.07595
367.549	1.25108
367.762	1.61305
367.974	1.56322
368.186	0.82524
368.398	2.20974
368.61	1.90776
368.822	1.91424
369.034	1.55759
369.246	1.99005
369.458	3.26007
369.67	0.81852
369.882	2.96352
370.094	0.07275
370.306	2.72486
370.518	1.26549
370.73	0.72012
370.942	0.87777
371.154	1.19038
371.366	0.92571
371.578	1.58579
371.79	0.70954
372.002	2.38543
372.214	2.73949
372.425	1.49917
372.637	2.27335
372.849	1.39174
373.061	-0.00795
373.273	1.76214
373.484	1.9316
373.696	2.18872
373.908	-0.02378
374.12	2.12671
374.331	1.93374
374.543	0.79463
374.755	0.7247
374.967	1.58256
375.178	2.02173
375.39	1.34713
375.602	1.59321
375.813	0.69132
376.025	0.39554
376.236	1.27013
376.448	1.45211
376.66	1.05895
376.871	1.02016
377.083	2.2095
377.294	2.04642
377.506	1.05743
377.717	2.28304
377.929	1.49483
378.14	0.68353
378.352	1.75899
378.563	1.69109
378.775	2.26559
378.986	0.87972
379.197	1.26669
379.409	1.09435
379.62	2.01455
379.832	1.65208
380.043	1.20321
380.254	1.39932
380.466	0.62862
380.677	3.54049
380.888	3.10337
381.1	3.42436
381.311	2.88387
381.522	1.36146
381.733	3.54174
381.945	1.23128
382.156	1.39064
382.367	1.15072
382.578	3.40967
382.789	3.2908
383.001	1.18077
383.212	2.18693
383.423	2.4458
383.634	2.16721
383.845	1.58118
384.056	1.07623
384.267	1.28256
384.478	1.17967
384.69	0.53883
384.901	1.79562
385.112	1.716
385.323	2.27112
385.534	1.73553
385.745	1.63855
385.956	1.68993
386.167	0.56004
386.378	1.60668
386.588	0.33991
386.799	0.74922
387.01	0.14139
387.221	1.99511
387.432	1.17984
387.643	2.74893
387.854	1.16683
388.065	1.04782
388.275	1.13056
388.486	1.02445
388.697	1.19325
388.908	1.07753
389.119	2.28246
389.329	2.67151
389.54	1.32659
389.751	1.64713
389.962	2.12129
390.172	1.51726
390.383	0.90054
390.594	0.82286
390.804	0.80607
391.015	0.71568
391.226	1.33619
391.436	1.57382
391.647	1.54397
391.858	1.72159
392.068	0.13963
392.279	0.30774
392.489	1.20654
392.7	2.09185
392.91	0.62908
393.121	0.72762
393.331	1.69012
393.542	2.01056
393.752	1.59123
393.963	1.11047
394.173	1.23059
394.384	1.59245
394.594	1.14666
394.804	0.44685
395.015	1.24138
395.225	1.53624
395.436	0.58305
395.646	1.65981
395.856	0.57461
396.067	0.52196
396.277	2.04802
396.487	1.41717
396.697	1.08
396.908	1.76338
397.118	1.93801
397.328	1.38657
397.538	1.97071
397.749	0.7436
397.959	1.74472
398.169	1.77393
398.379	0.45966
398.589	1.77546
398.8	1.26257
399.01	0.89265
399.22	1.30164
399.43	2.92014
399.64	0.77604
399.85	1.71531
400.06	1.01816
400.27	0.90329
400.48	1.37834
400.69	2.39637
400.9	1.04303
401.11	0.79464
401.32	2.01185
401.53	0.92437
401.74	2.44869
401.95	1.92972
402.16	0.3315
402.37	1.52327
402.58	0.72901
402.79	1.87187
403	1.81098
403.209	0.9983
403.419	1.81028
403.629	0.87862
403.839	1.71357
404.049	1.68345
404.258	0.65038
404.468	0.49945
404.678	1.57181
404.888	1.54617
405.097	0.50269
405.307	1.25517
405.517	1.66633
405.727	1.31958
405.936	1.00038
406.146	1.46224
406.356	2.05981
406.565	1.27133
406.775	0.76032
406.984	0.61638
407.194	2.46078
407.404	1.31027
407.613	1.41508
407.823	1.85824
408.032	2.08276
408.242	1.88241
408.451	0.97387
408.661	1.00573
408.87	2.3126
409.08	0.97042
409.289	1.61393
409.499	1.3744
409.708	1.60346
409.918	0.06014
410.127	1.31121
410.336	2.41689
410.546	1.81325
410.755	1.01628
410.964	0.9192
411.174	0.76741
411.383	1.5546
411.592	1.56539
411.802	0.69023
412.011	2.1691
412.22	1.43472
412.429	2.49661
412.639	2.18531
412.848	2.4587
413.057	2.46802
413.266	2.14324
413.475	1.24296
413.685	2.13911
413.894	1.95752
414.103	2.17386
414.312	1.95144
414.521	1.33894
414.73	1.57071
414.939	2.73239
415.148	1.88242
415.357	1.59366
415.566	1.16442
415.776	1.13153
415.985	0.89696
416.194	1.74692
416.403	2.25659
416.611	0.40094
416.82	0.7596
417.029	1.21274
417.238	0.69298
417.447	0.57061
417.656	0.83188
417.865	0.60402
418.074	0.88531
418.283	1.07159
418.492	1.57494
418.7	1.62186
418.909	2.30223
419.118	1.23737
419.327	1.65511
419.536	1.27899
419.744	0.84427
419.953	2.03285
420.162	1.95948
420.371	0.80633
420.579	0.68326
420.788	1.79811
420.997	1.76265
421.205	1.73739
421.414	1.38433
421.623	1.48864
421.831	1.05423
422.04	1.7882
422.249	1.09371
422.457	1.64575
422.666	1.02605
422.874	2.13698
423.083	1.98548
423.291	1.91755
423.5	1.51962
423.708	1.75703
423.917	2.2129
424.125	1.56362
424.334	1.21282
424.542	3.26759
424.751	2.29068
424.959	2.03737
425.167	2.61944
425.376	2.39744
425.584	1.65759
425.793	2.05699
426.001	1.11228
426.209	2.09674
426.418	1.13244
426.626	1.07608
426.834	0.9108
427.042	1.26496
427.251	0.9902
427.459	1.9096
427.667	1.36896
427.875	0.68729
428.084	1.18223
428.292	2.05746
428.5	1.70028
428.708	0.94604
428.916	0.91483
429.124	1.5529
429.333	1.17221
429.541	1.2607
429.749	1.47967
429.957	1.47348
430.165	2.8499
430.373	0.8113
430.581	1.43549
430.789	2.28229
430.997	1.14046
431.205	0.9709
431.413	1.41448
431.621	1.16625
431.829	1.83667
432.037	1.17085
432.245	1.44822
432.453	1.64357
432.661	1.15771
432.869	2.55624
433.076	0.84237
433.284	1.42845
433.492	1.82544
433.7	2.25924
433.908	1.17093
434.116	1.63047
434.323	1.64231
434.531	1.5077
434.739	1.71367
434.947	1.94851
435.154	1.9413
435.362	1.62962
435.57	1.2788
435.778	1.08839
435.985	1.69614
436.193	1.14237
436.401	2.20482
436.608	1.54909
436.816	1.21088
437.023	2.46832
437.231	2.47933
437.439	1.64768
437.646	1.85602
437.854	1.77564
438.061	1.98579
438.269	1.48713
438.476	2.03206
438.684	1.64491
438.891	1.35216
439.099	1.20948
439.306	0.82517
439.514	1.04569
439.721	2.02856
439.929	1.35378
440.136	2.19516
440.343	2.03623
440.551	1.67915
440.758	3.48969
440.965	2.25172
441.173	1.91004
441.38	1.43178
441.587	2.06995
441.795	1.52561
442.002	1.88306
442.209	1.80129
442.416	2.04811
442.624	2.01889
442.831	1.8317
443.038	1.23332
443.245	1.1698
443.452	1.35477
443.66	2.10555
443.867	1.23926
444.074	1.27694
444.281	1.19712
444.488	1.49463
444.695	1.62325
444.902	1.47768
445.109	2.254
445.316	1.66121
445.523	1.6786
445.73	1.39366
445.937	2.02344
446.144	2.40743
446.351	2.51135
446.558	1.64333
446.765	2.78477
446.972	2.80444
447.179	2.02691
447.386	3.14009
447.593	1.859
447.8	2.85334
448.007	1.87301
448.214	1.89967
448.42	1.50775
448.627	2.48502
448.834	1.59675
449.041	1.57664
449.248	1.49283
449.454	2.17369
449.661	2.48182
449.868	1.52112
450.075	1.30634
450.281	0.79327
450.488	1.18708
450.695	1.21513
450.901	1.28037
451.108	1.5598
451.315	2.25827
451.521	1.59249
451.728	2.29211
451.935	1.24307
452.141	1.6077
452.348	1.8234
452.554	1.68742
452.761	1.43657
452.967	2.69743
453.174	1.90973
453.38	1.8666
453.587	1.04982
453.793	1.85236
454	2.39333
454.206	3.08041
454.413	2.45019
454.619	2.13331
454.825	1.30771
455.032	2.11723
455.238	2.39305
455.445	1.01408
455.651	2.04761
455.857	0.83606
456.064	1.66665
456.27	1.6399
456.476	1.62376
456.682	1.0355
456.889	1.86775
457.095	2.10754
457.301	3.23099
457.507	1.83293
457.714	1.87192
457.92	1.71922
458.126	1.31918
458.332	1.57672
458.538	1.52077
458.744	1.55059
458.951	1.59746
459.157	3.22203
459.363	2.10702
459.569	2.04933
459.775	2.8129
459.981	1.8666
460.187	2.4149
460.393	2.76348
460.599	3.41164
460.805	2.34027
461.011	2.15318
461.217	2.81041
461.423	2.60734
461.629	1.8501
461.835	2.32678
462.041	1.74802
462.247	2.90961
462.453	1.83362
462.658	1.87277
462.864	2.40797
463.07	2.26261
463.276	2.15333
463.482	2.06207
463.688	2.72809
463.893	1.63263
464.099	1.75904
464.305	3.02668
464.511	1.66657
464.716	1.85516
464.922	2.33463
465.128	1.43421
465.333	2.97779
465.539	2.3532
465.745	1.94903
465.95	2.26785
466.156	3.8226
466.362	2.85002
466.567	2.07741
466.773	2.04728
466.978	3.06794
467.184	1.5836
467.389	0.92301
467.595	2.38875
467.8	1.59047
468.006	2.82093
468.211	2.91311
468.417	1.53598
468.622	2.3888
468.828	2.71397
469.033	2.25981
469.239	4.02952
469.444	1.77757
469.649	2.67459
469.855	2.03182
470.06	2.22144
470.266	1.56479
470.471	2.55036
470.676	2.48737
470.881	1.18469
471.087	3.02052
471.292	3.5732
471.497	1.34573
471.703	2.03745
471.908	1.87802
472.113	2.32734
472.318	2.91775
472.523	1.56018
472.729	2.41331
472.934	2.79793
473.139	1.97036
473.344	2.69449
473.549	2.96005
473.754	1.81666
473.959	3.85682
474.164	1.90649
474.369	2.07225
474.575	2.73823
474.78	2.15697
474.985	1.96411
475.19	1.17499
475.395	1.81832
475.6	2.15919
475.804	3.16114
476.009	2.15864
476.214	2.25169
476.419	1.93618
476.624	1.27139
476.829	1.78612
477.034	2.62281
477.239	1.7326
477.444	2.61417
477.648	2.45715
477.853	2.72837
478.058	1.90465
478.263	1.79266
478.468	1.52185
478.672	1.71271
478.877	3.03106
479.082	3.28284
479.287	2.54213
479.491	2.33508
479.696	1.43001
479.901	2.96421
480.105	2.62148
480.31	1.86124
480.515	2.16437
480.719	3.54056
480.924	1.81267
481.128	1.54344
481.333	2.40807
481.538	2.55093
481.742	2.21341
481.947	2.84465
482.151	3.14201
482.356	3.02188
482.56	3.90759
482.765	4.16618
482.969	5.37399
483.174	6.12471
483.378	7.3691
483.582	7.3206
483.787	8.20855
483.991	7.99945
484.196	8.10926
484.4	8.0345
484.604	8.62653
484.809	7.19221
485.013	7.1852
485.217	6.36923
485.422	5.33578
485.626	4.80336
485.83	4.71563
486.034	4.38182
486.239	4.57069
486.443	4.48781
486.647	4.38807
486.851	5.37198
487.055	6.01309
487.26	5.36155
487.464	5.96553
487.668	5.19417
487.872	5.26435
488.076	6.06173
488.28	5.53247
488.484	4.99295
488.688	4.9322
488.892	4.92359
489.096	4.74551
489.3	4.13653
489.504	3.95548
489.708	4.14158
489.912	3.92414
490.116	3.77831
490.32	3.14333
490.524	3.87008
490.728	4.08531
490.932	4.06621
491.136	4.19634
491.34	5.23395
491.544	5.56775
491.748	5.02336
491.951	5.07813
492.155	4.76643
492.359	5.02373
492.563	3.98226
492.767	3.80838
492.97	3.44331
493.174	2.86544
493.378	2.99456
493.582	2.3007
493.785	2.54307
493.989	2.56838
494.193	2.52345
494.396	2.16978
494.6	2.80377
494.804	2.26814
495.007	2.20303
495.211	2.21828
495.414	2.45726
495.618	2.65011
495.822	3.18875
496.025	2.51812
496.229	2.99741
496.432	2.25481
496.636	2.59218
496.839	2.56021
497.043	3.57334
497.246	2.77737
497.45	2.4822
497.653	2.619
497.856	2.82944
498.06	2.1192
498.263	2.45871
498.467	2.37828
498.67	3.0671
498.873	2.71832
499.077	2.3469
499.28	2.44381
499.483	2.86501
499.686	3.08456
499.89	2.79029
500.093	3.12923
500.296	2.14499
500.499	3.54084
500.703	2.60551
500.906	2.68749
501.109	3.82383
501.312	2.51252
501.515	2.62977
501.719	2.76797
501.922	3.67956
502.125	2.80346
502.328	2.57616
502.531	2.05972
502.734	2.6739
502.937	1.60919
503.14	2.78891
503.343	2.13587
503.546	2.43118
503.749	2.3649
503.952	3.00137
504.155	2.20828
504.358	3.01268
504.561	2.84902
504.764	1.91115
504.967	2.66087
505.17	2.74914
505.373	3.54316
505.576	2.6294
505.778	3.11702
505.981	2.22474
506.184	3.51137
506.387	1.68045
506.59	3.98757
506.793	3.38251
506.995	2.91011
507.198	1.57192
507.401	2.8594
507.604	3.05179
507.806	2.16578
508.009	2.24953
508.212	3.10539
508.414	2.33378
508.617	2.38017
508.82	2.71481
509.022	3.61724
509.225	2.91512
509.427	1.9625
509.63	3.49696
509.833	2.66196
510.035	2.51868
510.238	1.85255
510.44	3.59803
510.643	1.69262
510.845	4.04607
511.048	2.9969
511.25	2.51756
511.453	2.67596
511.655	3.02859
511.858	2.6142
512.06	3.26574
512.262	2.86225
512.465	3.36252
512.667	2.51913
512.869	2.15191
513.072	3.05265
513.274	3.38389
513.476	3.12359
513.679	3.37331
513.881	2.27567
514.083	3.77962
514.286	2.31037
514.488	2.48241
514.69	2.3083
514.892	2.15259
515.094	3.26213
515.297	2.55331
515.499	2.94788
515.701	2.28647
515.903	3.96369
516.105	3.77714
516.307	3.35949
516.509	1.75346
516.711	2.06107
516.913	2.82639
517.116	2.86442
517.318	2.7258
517.52	3.50229
517.722	3.19346
517.924	2.33142
518.126	3.3683
518.328	2.82688
518.529	3.47836
518.731	4.23555
518.933	2.82478
519.135	3.03183
519.337	3.93403
519.539	3.36629
519.741	1.89898
519.943	2.86874
520.145	2.66499
520.346	3.44117
520.548	2.73552
520.75	3.01678
520.952	2.57161
521.153	3.11425
521.355	3.24916
521.557	2.47072
521.759	3.06131
521.96	2.76388
522.162	2.40674
522.364	3.49133
522.565	2.59106
522.767	3.42597
522.969	3.64022
523.17	3.19565
523.372	3.16891
523.573	2.76638
523.775	2.90606
523.977	2.2659
524.178	4.23227
524.38	2.56952
524.581	3.41314
524.783	2.60569
524.984	3.57689
525.186	3.17742
525.387	3.64043
525.589	3.43255
525.79	3.28612
525.991	3.05443
526.193	3.8199
526.394	2.8127
526.596	3.93115
526.797	3.88692
526.998	3.61533
527.2	3.36954
527.401	5.02467
527.602	5.1264
527.803	6.66631
528.005	6.80293
528.206	7.51269
528.407	7.84184
528.608	7.60027
528.81	7.82931
529.011	7.11546
529.212	8.01127
529.413	7.23824
529.614	6.77733
529.815	6.69201
530.017	6.07528
530.218	5.17407
530.419	4.45371
530.62	4.37212
530.821	4.29588
531.022	3.18254
531.223	4.13783
531.424	4.1313
531.625	4.13265
531.826	3.86856
532.027	4.05759
532.228	5.17283
532.429	4.71416
532.63	4.74697
532.831	5.22611
533.032	5.10958
533.233	5.80702
533.433	5.3818
533.634	5.71924
533.835	5.16314
534.036	4.62383
534.237	4.57899
534.438	4.09303
534.638	3.2247
534.839	3.54449
535.04	3.81345
535.241	3.14994
535.441	4.48476
535.642	3.7283
535.843	2.90839
536.043	3.10107
536.244	3.23154
536.445	3.60846
536.645	4.33531
536.846	3.89863
537.047	4.67881
537.247	3.17293
537.448	3.47103
537.648	3.48635
537.849	3.31503
538.049	3.23678
538.25	3.64116
538.451	3.5508
538.651	2.83748
538.851	3.43383
539.052	3.92687
539.252	3.83351
539.453	3.19741
539.653	3.43555
539.854	3.36789
540.054	3.60446
540.254	4.76567
540.455	5.31443
540.655	4.66791
540.855	5.45578
541.056	6.2527
541.256	5.91683
541.456	6.81852
541.657	5.82946
541.857	6.84883
542.057	5.2575
542.257	5.16346
542.458	5.86216
542.658	5.61397
542.858	4.22482
543.058	5.08019
543.258	4.60788
543.458	3.30975
543.659	3.07912
543.859	4.13054
544.059	4.00723
544.259	3.34726
544.459	3.94241
544.659	3.10237
544.859	3.61903
545.059	2.9318
545.259	3.72531
545.459	3.43073
545.659	3.88059
545.859	3.4351
546.059	3.45282
546.259	2.88505
546.459	2.51082
546.659	2.78039
546.859	4.02464
547.059	3.52596
547.258	3.67809
547.458	3.76082
547.658	2.88695
547.858	2.81442
548.058	3.63069
548.258	3.32776
548.457	2.74498
548.657	5.17871
548.857	3.23419
549.057	4.06802
549.256	3.76581
549.456	3.15478
549.656	2.15483
549.855	4.84969
550.055	3.23586
550.255	4.97235
550.454	3.88741
550.654	4.24426
550.853	4.7147
551.053	4.22714
551.253	3.92616
551.452	3.90669
551.652	2.65101
551.851	2.48433
552.051	3.39755
552.25	3.12339
552.45	3.03212
552.649	3.43359
552.849	2.926
553.048	3.5748
553.248	3.90168
553.447	2.89386
553.646	4.07879
553.846	5.20132
554.045	4.27838
554.244	2.58778
554.444	4.90782
554.643	3.20219
554.842	4.7136
555.042	5.31581
555.241	3.20182
555.44	2.91548
555.64	3.94225
555.839	5.0883
556.038	4.03977
556.237	3.29823
556.436	3.84606
556.636	4.00062
556.835	3.34804
557.034	5.31782
557.233	3.74184
557.432	2.72827
557.631	4.7138
557.83	3.53274
558.029	3.53647
558.228	3.34676
558.427	3.09489
558.626	4.01851
558.825	3.15443
559.024	3.79635
559.223	5.32907
559.422	3.82898
559.621	4.19022
559.82	2.02505
560.019	3.83796
560.218	3.5782
560.417	1.33227
560.616	3.30789
560.815	6.53169
561.014	2.58702
561.212	4.95127
561.411	3.88659
561.61	2.48286
561.809	3.44021
562.008	4.79964
562.206	3.48734
562.405	4.25758
562.604	3.35872
562.803	4.05784
563.001	3.68645
563.2	2.62107
563.399	4.29084
563.597	2.61547
563.796	3.86017
563.995	2.5973
564.193	4.15808
564.392	3.36515
564.59	5.6242
564.789	2.09564
564.988	3.36598
565.186	3.88155
565.385	3.67503
565.583	3.28645
565.782	3.53615
565.98	3.44034
566.179	3.6292
566.377	2.67338
566.575	2.99914
566.774	4.62743
566.972	4.403
567.171	5.21768
567.369	4.6942
567.567	3.70759
567.766	4.03767
567.964	2.04637
568.162	3.97487
568.361	4.67861
568.559	3.4789
568.757	4.03731
568.956	3.97613
569.154	3.83035
569.352	4.35854
569.55	3.57155
569.748	3.7003
569.947	3.04783
570.145	2.84772
570.343	2.7586
570.541	4.79846
570.739	2.48664
570.937	3.6966
571.135	4.12947
571.333	5.35236
571.532	4.96112
571.73	3.78949
571.928	4.76451
572.126	4.27725
572.324	3.21745
572.522	4.8556
572.72	6.15054
572.918	3.72608
573.116	3.96887
573.313	3.77769
573.511	3.85435
573.709	3.35374
573.907	4.36793
574.105	3.37697
574.303	2.35807
574.501	2.56861
574.699	4.15718
574.896	3.96511
575.094	4.27222
575.292	2.61347
575.49	4.52406
575.688	3.54058
575.885	4.871
576.083	5.54682
576.281	4.23203
576.478	3.13772
576.676	4.1548
576.874	2.60556
577.071	3.50308
577.269	6.04378
577.467	3.77717
577.664	3.78262
577.862	4.69861
578.059	3.1639
578.257	4.64586
578.455	3.51128
578.652	4.05948
578.85	2.08745
579.047	4.01359
579.245	3.66471
579.442	3.96619
579.64	3.91126
579.837	2.11695
580.034	6.43361
580.232	3.76488
580.429	2.51972
580.627	4.61068
580.824	5.45858
581.021	4.5724
581.219	3.72372
581.416	3.22319
581.613	5.04912
581.811	5.59337
582.008	3.20482
582.205	4.98543
582.402	4.51994
582.6	5.81406
582.797	4.10295
582.994	4.56358
583.191	4.68679
583.388	4.2634
583.586	5.11622
583.783	5.0772
583.98	3.74759
584.177	4.6995
584.374	1.02639
584.571	4.0591
584.768	4.30089
584.965	3.473
585.162	4.69606
585.359	5.97726
585.556	4.47839
585.753	4.60328
585.95	2.97651
586.147	3.68172
586.344	4.99309
586.541	4.00983
586.738	3.04167
586.935	4.22548
587.132	3.26168
587.329	5.36353
587.526	4.07861
587.722	9.54631
587.919	2.63743
588.116	4.69471
588.313	5.79161
588.51	6.77963
588.706	3.71175
588.903	4.90181
589.1	5.12842
589.297	7.04603
589.493	4.35415
589.69	4.90789
589.887	3.59693
590.083	3.05283
590.28	3.61973
590.477	4.95836
590.673	5.10452
590.87	6.09398
591.067	4.05025
591.263	5.02077
591.46	4.72268
591.656	4.21558
591.853	5.78245
592.049	3.23455
592.246	3.38858
592.442	5.56802
592.639	5.17497
592.835	3.09305
593.032	4.93631
593.228	2.90105
593.425	2.54205
593.621	2.44378
593.817	4.54674
594.014	3.26654
594.21	4.17181
594.406	5.47449
594.603	4.61869
594.799	3.56364
594.995	1.78567
595.192	5.30755
595.388	3.6665
595.584	3.70083
595.78	2.63531
595.977	6.78199
596.173	5.93125
596.369	3.74754
596.565	3.33451
596.761	2.50271
596.957	5.52182
597.154	3.23691
597.35	3.82639
597.546	3.27572
597.742	4.83143
597.938	4.26769
598.134	3.23028
598.33	4.41384
598.526	5.67358
598.722	4.83461
598.918	6.51259
599.114	5.13245
599.31	3.47653
599.506	4.36488
599.702	3.88025
599.898	4.70039
600.094	5.52541
600.29	5.36175
600.485	5.81826
600.681	4.1429
600.877	6.39171
601.073	4.51464
601.269	7.0921
601.465	5.84488
601.66	3.26921
601.856	1.84107
602.052	6.55465
602.248	3.8891
602.443	2.02807
602.639	2.86585
602.835	3.45219
603.03	3.23687
603.226	5.21834
603.422	3.01899
603.617	3.64067
603.813	3.71073
604.009	3.46612
604.204	5.37224
604.4	2.68129
604.595	5.00251
604.791	2.99628
604.986	4.33991
605.182	3.04633
605.377	3.75181
605.573	3.37654
605.768	4.26403
605.964	4.87122
606.159	5.0584
606.355	5.58408
606.55	3.92045
606.746	5.86482
606.941	3.9091
607.136	6.85238
607.332	8.19364
607.527	2.62241
607.722	4.77608
607.918	4.12582
608.113	3.72167
608.308	5.25029
608.503	4.78495
608.699	4.57847
608.894	4.87455
609.089	3.5326
609.284	4.50936
609.479	3.5485
609.675	4.90345
609.87	4.08036
610.065	5.07703
610.26	5.37245
610.455	5.23382
610.65	4.08698
610.845	4.5426
611.04	5.52907
611.235	4.05609
611.43	3.72417
611.625	3.05416
611.82	6.21083
612.015	3.77937
612.21	6.47637
612.405	2.73405
612.6	7.09773
612.795	6.15428
612.99	5.5513
613.185	3.34718
613.38	3.91814
613.575	5.07083
613.77	8.58602
613.965	2.66462
614.159	3.55273
614.354	6.75797
614.549	6.39086
614.744	5.40306
614.938	3.61836
615.133	2.89303
615.328	7.08775
615.523	6.51606
615.717	9.06792
615.912	3.84256
616.107	5.11558
616.301	4.33794
616.496	3.97936
616.691	7.35906
616.885	6.02199
617.08	9.08948
617.274	6.54135
617.469	8.30463
617.664	5.81971
617.858	4.3681
618.053	5.67662
618.247	4.96603
618.442	1.79197
618.636	7.28699
618.831	4.5728
619.025	4.62031
619.219	8.99452
619.414	0.76501
619.608	5.12402
619.803	4.02519
619.997	8.49416
620.191	6.81198
620.386	5.80786
620.58	5.4747
620.774	2.85916
620.969	3.24785
621.163	5.24479
621.357	3.26082
621.551	4.56483
621.746	5.56581
621.94	4.84459
622.134	10.40423
622.328	8.39836
622.522	3.07164
622.716	6.90873
622.911	6.95486
623.105	6.42434
623.299	5.64503
623.493	10.36316
623.687	3.77658
623.881	4.6502
624.075	5.77001
624.269	7.00269
624.463	2.59848
624.657	3.18566
624.851	6.13475
625.045	6.72741
625.239	6.77581
625.433	4.65955
625.627	7.73606
625.821	4.31658
626.015	3.90676
626.209	5.23813
626.403	2.82656
626.596	5.67257
626.79	6.2006
626.984	3.36466
627.178	5.64319
627.372	5.87624
627.565	6.20389
627.759	3.26807
627.953	3.15714
628.147	6.08343
628.34	6.02568
628.534	7.94199
628.728	5.14766
628.921	6.79289
629.115	6.36678
629.309	6.59508
629.502	7.07553
629.696	5.39866
629.89	5.26809
630.083	5.78344
630.277	6.32067
630.47	8.55486
630.664	5.12633
630.857	3.11892
631.051	6.83288
631.244	7.77411
631.438	7.03061
631.631	4.28515
631.825	7.89613
632.018	6.41635
632.212	8.38842
632.405	7.8941
632.598	4.44688
632.792	5.99143
632.985	1.87014
633.178	4.83
633.372	5.34397
633.565	5.46955
633.758	7.80555
633.952	4.41217
634.145	4.27706
634.338	5.90194
634.531	4.50605
634.724	4.90058
634.918	5.58225
635.111	5.22501
635.304	4.62423
635.497	9.73175
635.69	6.11018
635.883	7.42462
636.077	3.59323
636.27	6.45963
636.463	6.42155
636.656	6.37615
636.849	4.68691
637.042	7.04356
637.235	9.12063
637.428	7.53825
637.621	7.86755
637.814	8.84797
638.007	8.8363
638.2	9.25173
638.393	9.34322
638.586	4.09638
638.778	5.28101
638.971	6.53769
639.164	9.41083
639.357	6.74157
639.55	8.99267
639.743	8.18775
639.935	7.52316
640.128	10.25424
640.321	7.90815
640.514	6.86123
640.707	11.32397
640.899	8.32664
641.092	3.7718
641.285	22.89735
641.477	2.58231
641.67	10.95553
641.863	9.24633
642.055	6.86543
642.248	6.97825
642.441	6.01655
642.633	8.19242
642.826	9.62824
643.018	9.46184
643.211	10.47278
643.403	10.71055
643.596	11.69804
643.788	10.876
643.981	6.15883
644.173	8.5682
644.366	6.32727
644.558	3.34403
644.751	9.37773
644.943	4.46259
645.135	11.42698
645.328	10.99005
645.52	8.35355
645.712	9.55314
645.905	14.8
646.097	4.56084
646.289	7.82974
646.482	12.17516
646.674	5.92633
646.866	10.18079
647.058	8.37214
647.251	5.12847
647.443	5.66176
647.635	6.8468
647.827	5.24467
648.019	5.9512
648.211	7.67455
648.404	7.80939
648.596	11.26135
648.788	7.94533
648.98	7.32498
649.172	8.48758
649.364	8.41091
649.556	3.29502
649.748	13.08532
649.94	5.30674
650.132	9.08621
650.324	5.44223
650.516	5.93855
650.708	10.08406
650.9	4.2677
651.092	6.14968
651.284	3.52685
651.476	4.58881
651.667	8.72585
651.859	10.06894
652.051	7.94783
652.243	7.34254
652.435	6.10619
652.627	8.94268
652.818	8.21742
653.01	4.18502
653.202	5.57516
653.394	6.86635
653.585	8.58077
653.777	18.67254
653.969	10.79723
654.16	9.89704
654.352	5.41865
654.544	6.85186
654.735	10.64109
654.927	7.70944
655.118	11.43222
655.31	9.44564
655.502	10.53943
655.693	6.89521
655.885	9.70156
656.076	11.13065
656.268	8.42328
656.459	10.79188
656.651	11.2574
656.842	6.81179
657.034	5.87316
657.225	9.45233
657.416	10.90949
657.608	10.90779
657.799	7.49112
657.99	10.1088
658.182	5.65356
658.373	5.82204
658.564	9.13261
658.756	7.23473
658.947	7.01688
659.138	5.10278
659.33	6.0307
659.521	5.41847
659.712	6.74391
659.903	7.02823
660.094	6.14386
660.286	4.01171
660.477	11.47941
660.668	8.49571
660.859	7.62555
661.05	4.36172
661.241	9.20117
661.432	8.99573
661.623	7.50913
661.814	6.46388
662.006	3.999
662.197	8.79939
662.388	10.53476
662.579	8.59371
662.77	11.38471
662.96	15.96408
663.151	11.23445
663.342	4.03547
663.533	9.41625
663.724	8.05385
663.915	13.32239
664.106	7.94399
664.297	13.11047
664.488	10.53181
664.678	7.14688
664.869	10.36093
665.06	11.87671
665.251	9.5538
665.442	10.09633
665.632	6.20692
665.823	13.80434
666.014	2.03274
666.204	10.71124
666.395	11.539
666.586	17.20853
666.776	10.82856
666.967	13.5985
667.158	9.02375
667.348	12.99164
667.539	5.60212
667.729	11.53098
667.92	6.28374
668.111	11.23729
668.301	10.91763
668.492	8.54477
668.682	9.40591
668.873	8.15292
669.063	5.75724
669.253	8.89498
669.444	11.43219
669.634	7.93727
669.825	14.16891
670.015	11.65048
670.206	6.89277
670.396	14.68339
670.586	9.26736
670.777	10.48827
670.967	3.18798
671.157	8.64357
671.347	6.50658
671.538	14.7299
671.728	10.77152
671.918	14.51088
672.108	11.37953
672.299	9.48604
672.489	10.44871
672.679	8.21015
672.869	11.32863
673.059	14.85396
673.249	11.68515
673.44	6.69775
673.63	9.23522
673.82	13.17618
674.01	7.26195
674.2	11.87439
674.39	19.40732
674.58	11.57726
674.77	9.98584
674.96	9.72454
675.15	22.94119
675.34	13.80716
675.53	10.43989
675.72	8.53956
675.91	4.96306
676.099	16.11374
676.289	17.73394
676.479	12.8109
676.669	8.85978
676.859	11.61209
677.049	7.37256
677.238	10.52356
677.428	15.18627
677.618	12.04027
677.808	14.20081
677.997	11.46369
678.187	5.99704
678.377	9.9937
678.567	8.54291
678.756	8.47659
678.946	8.90865
679.136	5.66645
679.325	7.34154
679.515	6.82911
679.704	5.57007
679.894	11.16889
680.084	10.29777
680.273	12.23103
680.463	7.04851
680.652	7.00071
680.842	9.74811
681.031	11.58248
681.221	7.0721
681.41	11.18887
681.6	8.4731
681.789	12.30112
681.978	13.08739
682.168	10.35224
682.357	10.55758
682.547	12.24552
682.736	11.06754
682.925	14.72145
683.115	14.10461
683.304	13.55664
683.493	11.36821
683.682	12.66242
683.872	11.66486
684.061	14.6589
684.25	12.98629
684.439	17.76273
684.629	12.51182
684.818	23.11452
685.007	10.46988
685.196	11.22472
685.385	17.20146
685.574	12.572
685.763	11.59161
685.952	11.72093
686.142	7.5355
686.331	15.25622
686.52	5.47166
686.709	16.99123
686.898	16.58558
687.087	14.13287
687.276	17.43276
687.465	15.20364
687.654	10.24613
687.842	17.71248
688.031	6.91762
688.22	16.77531
688.409	11.99433
688.598	12.19123
688.787	21.43386
688.976	11.69701
689.165	18.99743
689.353	10.35539
689.542	13.19867
689.731	16.09543
689.92	19.66767
690.108	15.334
690.297	11.29472
690.486	12.99498
690.675	15.32895
690.863	19.85316
691.052	18.26014
691.241	13.64433
691.429	13.27164
691.618	19.53526
691.806	7.39931
691.995	11.12292
692.184	12.83238
692.372	9.91465
692.561	13.82951
692.749	13.0012
692.938	24.07302
693.126	15.40733
693.315	12.92403
693.503	15.649
693.692	16.80929
693.88	16.95086
694.068	21.90962
694.257	13.20226
694.445	15.49171
694.634	5.46807
694.822	16.63496
695.01	18.46741
695.199	20.31925
695.387	19.70955
695.575	18.34435
695.763	13.01894
695.952	11.59115
696.14	8.08336
696.328	10.85655
696.516	14.17556
696.705	13.64948
696.893	14.42504
697.081	5.95648
697.269	16.79784
697.457	8.96627
697.645	8.12958
697.833	15.74491
698.021	9.86693
698.21	11.38417
698.398	11.58339
698.586	7.85463
698.774	7.93377
698.962	10.77113
699.15	8.73307
699.338	6.58215
699.526	13.06352
699.714	9.82749
699.901	9.05741
700.089	15.41438
700.277	9.78868
700.465	11.22076
700.653	15.137
700.841	14.71731
701.029	10.06944
701.217	18.36152
701.404	14.45034
701.592	18.67304
701.78	22.88364
701.968	11.75645
702.155	13.6675
702.343	7.10171
702.531	20.8803
702.718	16.96571
702.906	13.17444
703.094	11.26959
703.281	20.78017
703.469	13.73393
703.657	20.03774
703.844	29.55586
704.032	21.87321
704.219	12.48188
704.407	16.70183
704.595	19.84727
704.782	15.52098
704.97	13.03037
705.157	13.18881
705.345	21.83852
705.532	28.8308
705.719	17.11526
705.907	22.16873
706.094	15.95775
706.282	24.1458
706.469	13.29952
706.656	16.25762
706.844	14.40102
707.031	20.83677
707.218	17.65747
707.406	23.69655
707.593	19.13813
707.78	18.7976
707.968	14.65802
708.155	11.22345
708.342	18.59335
708.529	18.20183
708.716	16.0416
708.904	23.68645
709.091	19.08528
709.278	10.90125
709.465	25.53652
709.652	24.34821
709.839	22.90225
710.026	18.14942
710.213	8.46036
710.4	18.38897
710.587	21.79115
710.774	23.46563
710.961	22.89269
711.148	17.54697
711.335	23.58188
711.522	16.00052
711.709	18.88031
711.896	28.11958
712.083	21.75537
712.27	12.80108
712.457	16.89136
712.644	10.65023
712.831	28.48735
713.017	17.98292
713.204	20.04249
713.391	14.23181
713.578	23.52974
713.765	26.20764
713.951	22.36058
714.138	36.46526
714.325	21.26457
714.512	17.21884
714.698	14.4152
714.885	26.74955
715.072	19.49466
715.258	19.64657
715.445	16.15837
715.631	25.45586
715.818	5.80023
716.005	16.36764
716.191	22.43305
716.378	16.65475
716.564	22.72974
716.751	14.45689
716.937	15.48679
717.124	27.02951
717.31	15.38885
717.497	28.39564
717.683	15.71097
717.869	33.03786
718.056	18.24979
718.242	22.66759
718.429	18.67912
718.615	14.03197
718.801	19.54311
718.988	26.12738
719.174	24.57009
719.36	19.87913
719.547	25.30911
719.733	22.79999
719.919	20.14421
720.105	26.03916
720.291	19.83656
720.478	21.59981
720.664	19.98411
720.85	17.0131
721.036	39.27914
721.222	30.0919
721.408	20.82092
721.595	33.56233
721.781	33.69611
721.967	29.02711
722.153	33.15999
722.339	24.72501
722.525	25.03962
722.711	15.45766
722.897	13.33938
723.083	19.6536
723.269	27.05766
723.455	40.5288
723.641	42.88288
723.827	24.54425
724.012	25.98249
724.198	18.13785
724.384	30.37756
724.57	25.1396
724.756	13.56402
724.942	10.1292
725.127	30.09684
725.313	32.71014
725.499	31.59936
725.685	36.32095
725.87	25.18342
726.056	17.1944
726.242	30.21377
726.428	12.61966
726.613	29.5606
726.799	20.51489
726.985	14.92274
727.17	13.22772
727.356	36.1524
727.541	16.75077
727.727	21.45761
727.913	27.95824
728.098	21.03065
728.284	27.69156
728.469	12.22844
728.655	16.5674
728.84	29.43334
729.026	27.05243
729.211	29.52918
729.397	26.42027
729.582	26.60024
729.767	22.15457
729.953	24.67997
730.138	31.15345
730.323	8.96746
730.509	15.77743
730.694	35.39184
730.879	25.73868
731.065	24.15142
731.25	39.63928
731.435	26.83188
731.621	13.45667
731.806	19.65127
731.991	25.68732
732.176	12.68041
732.361	32.47497
732.547	26.63422
732.732	11.80376
732.917	40.33032
733.102	14.31524
733.287	18.15828
733.472	25.15559
733.657	24.57723
733.842	12.96434
734.027	20.53266
734.212	20.7693
734.397	18.18592
734.582	24.37664
734.767	29.84142
734.952	34.35225
735.137	6.64541
735.322	33.34405
735.507	23.8166
735.692	27.12764
735.877	41.20715
736.062	37.49897
736.247	25.7622
736.431	23.71419
736.616	33.73345
736.801	27.33309
736.986	25.6967
737.171	18.29033
737.355	13.57694
737.54	33.54303
737.725	24.71609
737.909	47.52803
738.094	22.35417
738.279	30.60004
738.463	24.00829
738.648	32.51377
738.833	28.61699
739.017	41.97941
739.202	23.3019
739.386	26.02674
739.571	20.27962
739.756	33.73653
739.94	26.16561
740.125	32.95292
740.309	21.99817
740.494	31.5823
740.678	26.54537
740.863	29.843
741.047	27.2215
741.231	36.13301
741.416	20.98343
741.6	38.34829
741.785	19.87213
741.969	34.46047
742.153	38.22768
742.338	8.17773
742.522	25.00404
742.706	31.89471
742.89	17.52543
743.075	28.29667
743.259	36.85526
743.443	34.79633
743.627	38.2969
743.812	45.88136
743.996	8.27513
744.18	27.82934
744.364	23.37428
744.548	50.73576
744.732	25.14076
744.916	31.94139
745.1	33.5838
745.285	25.18603
745.469	33.15085
745.653	43.02315
745.837	16.39961
746.021	45.98391
746.205	37.21746
746.389	30.50996
746.573	23.32663
746.757	42.09764
746.94	24.128
747.124	38.04845
747.308	15.47301
747.492	37.6409
747.676	21.53866
747.86	50.9062
748.044	26.391
748.227	13.02967
748.411	64.28765
748.595	32.08025
748.779	20.78334
748.963	33.51976
749.146	30.32432
749.33	22.16018
749.514	21.53873
749.697	37.75031
749.881	22.35623
750.065	18.72373
750.248	29.30983
750.432	50.63491
750.616	32.90105
750.799	15.50724
750.983	51.26728
751.166	57.60887
751.35	16.00924
751.533	34.7595
751.717	41.26055
751.9	41.01794
752.084	24.61818
752.267	18.29716
752.451	22.21468
752.634	29.41639
752.818	33.87519
753.001	36.97945
753.184	41.98655
753.368	30.57722
753.551	1.38193
753.734	24.26237
753.918	53.49007
754.101	23.24718
754.284	36.98193
754.467	25.52927
754.651	22.94268
754.834	25.10674
755.017	40.62312
755.2	40.64521
755.384	17.09914
755.567	37.68445
755.75	41.65685
755.933	25.43973
756.116	32.15422
756.299	26.0426
756.482	19.77238
756.665	35.75896
756.848	33.08067
757.032	36.73133
757.215	16.39681
757.398	21.5998
757.581	24.40913
757.764	57.82395
757.947	31.35543
758.129	44.11231
758.312	2.62523
758.495	29.64713
758.678	28.22898
758.861	30.00467
759.044	51.45706
759.227	22.12557
759.41	22.26773
759.592	34.96878
759.775	29.73198
759.958	38.6399
760.141	16.63813
760.324	50.77876
760.506	45.53049
760.689	40.99734
760.872	61.74524
761.054	36.32591
761.237	24.788
761.42	37.20801
761.602	39.93778
761.785	35.41218
761.968	40.06313
762.15	47.94702
762.333	28.56804
762.515	34.40962
762.698	22.51734
762.88	37.28414
763.063	30.504
763.245	36.89914
763.428	21.37511
763.61	22.43106
763.793	18.22694
763.975	32.05335
764.158	24.0057
764.34	23.52041
764.522	18.65871
764.705	25.42332
764.887	41.51199
765.069	15.65983
765.252	35.75336
765.434	38.69721
765.616	28.28135
765.799	22.75646
765.981	36.00142
766.163	20.8001
766.345	40.8932
766.528	23.13493
766.71	8.84782
766.892	28.19176
767.074	42.82354
767.256	27.75492
767.438	48.13205
767.62	36.15517
767.802	58.41614
767.985	39.01519
768.167	54.59052
768.349	26.44918
768.531	40.58982
768.713	35.87092
768.895	44.83128
769.077	38.89029
769.259	64.16434
769.441	94.90422
769.623	41.67274
769.804	55.88992
769.986	56.55153
770.168	72.98692
770.35	75.39194
770.532	63.71364
770.714	61.43396
770.896	69.48994
771.077	21.91446
771.259	66.92136
771.441	59.29703
771.623	72.39123
771.804	95.50611
771.986	21.14388
772.168	43.92964
772.35	68.09714
772.531	101.37428
772.713	55.23961
772.894	76.4256
773.076	50.63121
773.258	46.07087
773.439	77.88646
773.621	82.33472
773.802	28.83912
773.984	51.06158
774.166	57.78494
774.347	85.95971
774.529	70.62629
774.71	13.96875
774.891	47.9945
775.073	43.52637
775.254	81.94798
775.436	44.29062
775.617	97.32758
775.799	45.47273
775.98	86.1202
776.161	89.56675
776.343	86.17209
776.524	57.3161
776.705	44.62788
776.886	25.8999
777.068	60.69658
777.249	114.7584
777.43	94.84469
777.611	33.11332
777.793	50.70897
777.974	82.96678
778.155	48.13574
778.336	42.38925
778.517	98.72427
778.698	42.48001
778.879	21.2431
779.061	6.70756
779.242	64.22339
779.423	59.3016
779.604	37.97003
779.785	51.59638
779.966	61.55348
780.147	75.02022
780.328	73.73539
780.509	107.18159
780.69	71.93896
780.871	47.5679
781.051	23.29895
781.232	58.13143
781.413	64.78791
781.594	44.60567
781.775	46.49976
781.956	42.18191
782.137	23.46912
782.317	46.24791
782.498	59.86012
782.679	60.7205
782.86	59.92493
783.04	40.73731
783.221	62.59612
783.402	98.49272
783.583	56.44949
783.763	76.24417
783.944	47.0802
784.124	24.77
784.305	96.00898
784.486	73.05854
784.666	50.04935
784.847	21.21136
785.027	118.52775
785.208	38.24425
785.388	44.23548
785.569	45.67616
785.749	48.32558
785.93	43.40591
786.11	27.50274
786.291	61.46863
786.471	61.21412
786.652	71.07448
786.832	50.83311
787.012	67.16767
787.193	33.44227
787.373	54.06323
787.553	50.16334
787.734	57.89219
787.914	43.35709
788.094	65.8576
788.275	63.64192
788.455	46.2538
788.635	30.59011
788.815	60.56422
788.995	35.33448
789.176	28.89592
789.356	39.40713
789.536	46.17279
789.716	64.09912
789.896	39.24465
790.076	46.05959
790.256	57.42383
790.436	10.3933
790.616	35.28545
790.796	65.2328
790.976	46.99281
791.156	40.7419
791.336	66.05829
791.516	59.18897
791.696	47.88044
791.876	26.08642
792.056	60.92527
792.236	78.76113
792.416	70.52127
792.596	67.23917
792.776	60.64039
792.956	74.17913
793.135	90.72985
793.315	31.00808
793.495	80.98437
793.675	68.10794
793.854	74.97875
794.034	75.022
794.214	28.88167
794.394	72.82734
794.573	81.68624
794.753	53.89925
794.933	40.01694
795.112	58.6064
795.292	72.48544
795.472	90.6086
795.651	32.11888
795.831	56.33829
796.01	44.64214
796.19	45.2717
796.369	51.1692
796.549	66.18954
796.728	51.78922
796.908	33.86362
797.087	32.62435
797.267	52.6357
797.446	34.20596
797.626	60.66494
797.805	60.2729
797.984	40.44964
798.164	64.4884
798.343	34.05219
798.522	59.82832
798.702	54.47097
798.881	32.32998
799.06	48.82903
799.239	18.48214
799.419	38.31228
799.598	85.0388
799.777	65.63716
799.956	74.86355
800.136	48.03532
800.315	39.06073
800.494	63.40586
800.673	73.88967
800.852	72.4151
801.031	80.26517
801.21	68.54369
801.389	43.35336
801.568	58.22338
801.747	92.7301
801.926	48.41152
802.105	87.75925
802.284	48.37681
802.463	86.36567
802.642	61.68685
802.821	61.69544
803	84.3863
803.179	77.03833
803.358	77.80197
803.537	46.21184
803.716	66.13426
803.895	43.48082
804.073	53.832
804.252	43.60842
804.431	61.44097
804.61	56.48725
804.789	88.71103
804.967	46.09946
805.146	46.66806
805.325	107.02456
805.503	67.69036
805.682	32.36573
805.861	122.65889
806.039	88.33676
806.218	42.35979
806.397	63.78842
806.575	59.61907
806.754	61.12083
806.932	38.63045
807.111	89.95064
807.289	79.41508
807.468	64.27127
807.646	79.17589
807.825	64.74264
808.003	68.33632
808.182	83.34983
808.36	54.63363
808.539	39.47461
808.717	95.08223
808.895	43.12587
809.074	59.97954
809.252	50.57011
809.43	84.42408
809.609	94.04382
809.787	105.96799
809.965	53.00202
810.144	58.52341
810.322	47.98474
810.5	75.4888
810.678	63.251
810.856	110.28923
811.035	87.86909
811.213	89.56677
811.391	78.7967
811.569	68.67137
811.747	141.54281
811.925	93.3869
812.103	49.28784
812.281	51.36536
812.459	119.9469
812.637	109.34462
812.816	90.33296
812.994	112.26991
813.171	90.13038
813.349	86.6834
813.527	99.51473
813.705	89.33905
813.883	113.80654
814.061	95.70741
814.239	109.06026
814.417	116.33732
814.595	80.51823
814.773	70.64297
814.95	74.13396
815.128	80.89112
815.306	65.82798
815.484	61.86608
815.662	45.61655
815.839	44.16276
816.017	54.30145
816.195	93.41964
816.372	58.97688
816.55	88.00957
816.728	104.66879
816.905	60.40659
817.083	104.30353
817.261	66.59306
817.438	141.6946
817.616	116.10071
817.793	50.9209
817.971	87.38417
818.148	80.11241
818.326	109.42614
818.503	78.70074
818.681	100.4032
818.858	55.13271
819.036	67.06567
819.213	67.66647
819.391	49.5379
819.568	40.90699
819.745	41.70175
819.923	77.69063
820.1	52.62861
820.277	43.36011
820.455	54.58775
820.632	54.08171
820.809	59.89825
820.986	31.29504
821.164	27.52494
821.341	22.76762
821.518	34.92331
821.695	25.05795
821.872	23.33819
822.05	19.2822
822.227	14.38655
822.404	15.75601
822.581	18.93118
822.758	15.94989
822.935	16.84872
823.112	20.40178
823.289	15.77621
823.466	20.11995
823.643	18.18899
823.82	23.89893
823.997	21.04485
824.174	26.00875
824.351	33.67131
824.528	32.70559
824.705	29.63084
824.882	32.40298
825.059	42.22135
825.236	29.54781
825.412	31.30346
825.589	38.39504
825.766	56.10417
825.943	31.86326
826.12	40.80034
826.296	25.65145
826.473	35.38222
826.65	33.28741
826.827	44.41333
827.003	27.34376
827.18	31.68701
827.357	36.65196
827.533	29.50167
827.71	16.08286
827.887	25.05116
828.063	30.81183
828.24	26.62178
828.416	36.14503
828.593	29.29947
828.769	46.2349
828.946	50.06384
829.122	49.99656
829.299	53.70587
829.475	23.14212
829.652	47.08083
829.828	78.28643
830.005	49.91851
830.181	71.2285
830.357	44.12904
830.534	75.23025
830.71	59.02827
830.886	77.47458
831.063	66.05923
831.239	94.42912
831.415	43.65271
831.592	102.69529
831.768	50.07993
831.944	43.51569
832.12	104.68173
832.296	93.63386
832.473	75.47338
832.649	45.80209
832.825	69.46732
833.001	39.95619
833.177	61.24773
833.353	53.53168
833.529	28.50792
833.705	44.75566
833.881	30.52023
834.058	29.45197
834.234	30.66256
834.41	33.10086
834.586	23.53164
834.761	29.36065
834.937	34.80921
835.113	37.60015
835.289	32.20941
835.465	41.51849
835.641	33.71612
835.817	36.76285
835.993	70.92967
836.169	35.5108
836.344	55.34229
836.52	62.47888
836.696	73.79055
836.872	43.99024
837.048	150.33571
837.223	52.64513
837.399	124.04832
837.575	95.65614
837.75	85.63013
837.926	130.94526
838.102	215.06794
838.277	152.95042
838.453	227.09136
838.628	208.9573
838.804	74.04544
838.98	200.91957
839.155	97.55855
839.331	133.84033
839.506	97.17042
839.682	84.4396
839.857	101.73944
840.033	130.71024
840.208	57.33615
840.384	26.95623
840.559	63.83158
840.734	97.9393
840.91	138.0086
841.085	82.97482
841.26	91.69236
841.436	82.31475
841.611	65.49992
841.786	115.12215
841.962	165.99512
842.137	112.02383
842.312	59.50352
842.487	84.26155
842.663	82.29926
842.838	98.14978
843.013	302.82279
843.188	182.25188
843.363	129.92027
843.538	301.93056
843.714	348.5901
843.889	306.31481
844.064	304.26018
844.239	221.30189
844.414	449.26907
844.589	255.25075
844.764	377.42024
844.939	363.97402
845.114	405.1873
845.289	424.3863
845.464	506.65294
845.639	381.24032
845.814	176.59275
845.989	322.35945
846.163	222.68794
846.338	318.96185
846.513	420.28902
846.688	267.57641
846.863	300.56128
847.038	216.42592
847.212	292.23794
847.387	334.20419
847.562	295.22889
847.737	463.44272
847.911	182.18403
848.086	180.25891
848.261	393.35096
848.435	263.4216
848.61	348.07247
848.785	198.79094
848.959	423.68446
849.134	448.81549
849.308	631.86779
849.483	326.21132
849.658	531.1193
849.832	222.09837
850.007	201.11589
850.181	651.87703
850.356	305.40065
850.53	772.00966
850.705	320.68205
850.879	147.75198
851.053	293.38373
851.228	276.92538
851.402	484.17176
851.577	479.16506
851.751	562.19124
851.925	350.86577
852.099	128.25123
852.274	233.33845
852.448	291.13408
852.622	460.43242
852.797	331.33683
852.971	328.84657
853.145	430.88919
853.319	732.5959
853.493	667.83306
853.668	504.13983
853.842	782.68826
854.016	493.93393
854.19	665.9384
854.364	348.11442
854.538	340.0072
854.712	734.54288
854.886	404.36783
855.06	290.78469
855.234	111.52864
855.408	634.92828
855.582	399.17559
855.756	635.1229
855.93	554.36299
856.104	619.14911
856.278	551.16519
856.452	344.60363
856.626	403.35881
856.8	908.04933
856.973	400.44107
857.147	456.62528
857.321	471.27848
857.495	516.25427
857.669	305.71403
857.842	457.62997
858.016	560.5088
858.19	239.77612
858.364	762.49587
858.537	400.02514
858.711	484.41438
858.885	422.79126
859.058	224.84939
859.232	160.27729
859.405	162.61289
859.579	495.66162
859.753	556.91492
859.926	247.10177
860.1	232.26527
860.273	356.45516
860.447	457.55837
860.62	362.5639
860.794	585.47249
860.967	339.44324
861.141	491.72593
861.314	801.15816
861.487	448.04455
861.661	461.31724
861.834	509.90755
862.008	682.51045
862.181	454.23144
862.354	517.2014
862.528	496.35409
862.701	333.50693
862.874	191.97358
863.047	313.38477
863.221	299.9218
863.394	172.84563
863.567	395.43415
863.74	136.03607
863.913	470.1628
864.087	491.0394
864.26	454.10988
864.433	356.3236
864.606	595.0208
864.779	347.21757
864.952	153.37057
865.125	410.71528
865.298	283.58578
865.471	348.6514
865.644	747.55544
865.817	497.66298
865.99	491.8521
866.163	449.78505
866.336	231.33198
866.509	334.9673
866.682	542.83963
866.855	705.95375
867.028	178.1835
867.2	395.04821
867.373	102.78374
867.546	374.63116
867.719	692.27713
867.892	437.57963
868.064	263.70152
868.237	314.78613
868.41	367.51869
868.583	141.2543
868.755	218.03546
868.928	413.93502
869.101	803.37155
869.273	542.78007
869.446	546.19719
869.619	588.57136
869.791	371.57344
869.964	514.14721
870.136	848.19672
870.309	337.18934
870.481	405.54351
870.654	197.72877
870.826	325.22813
870.999	219.88765
871.171	418.87134
871.344	243.05121
871.516	295.37772
871.689	248.23137
871.861	324.23529
872.033	265.81843
872.206	254.09265
872.378	318.77144
872.55	347.33215
872.723	204.0911
872.895	312.06344
873.067	441.47669
873.24	352.09887
873.412	318.51634
873.584	361.41709
873.756	355.73597
873.928	447.45078
874.101	324.25773
874.273	404.18563
874.445	131.74705
874.617	223.62283
874.789	294.18515
874.961	331.46092
875.133	371.69951
875.305	354.36474
875.477	305.86308
875.649	176.41598
875.821	174.15929
875.993	603.3024
876.165	361.99693
876.337	374.40927
876.509	317.28044
876.681	373.608
876.853	361.32753
877.025	339.82793
877.197	242.0151
877.369	164.57178
877.541	337.24104
877.712	90.90576
877.884	159.74527
878.056	347.6484
878.228	184.61555
878.4	399.83307
878.571	165.26169
878.743	116.65317
878.915	266.16912
879.086	127.99954
879.258	176.34934
879.43	176.20692
879.601	131.44295
879.773	144.06845
879.945	28.58992
880.116	51.46758
880.288	29.58538
880.459	33.11104
880.631	22.70722
880.802	29.74905
880.974	27.13683
881.145	17.94917
881.317	25.98096
881.488	19.95577
881.66	21.4929
881.831	19.92764
882.002	27.3916
882.174	20.28351
882.345	27.14664
882.517	12.9683
882.688	33.91532
882.859	25.5099
883.03	45.7141
883.202	41.46424
883.373	35.17844
883.544	34.62792
883.715	63.28409
883.887	51.427
884.058	43.52135
884.229	65.63656
884.4	71.35908
884.571	80.396
884.742	68.2689
884.914	69.53113
885.085	107.84679
885.256	151.98742
885.427	131.31038
885.598	159.8856
885.769	148.14671
885.94	153.14038
886.111	93.60035
886.282	176.70998
886.453	156.02505
886.624	110.8971
886.795	221.40343
886.966	167.46134
887.136	194.65244
887.307	137.32577
887.478	309.44466
887.649	263.5783
887.82	257.8752
887.991	198.65958
888.161	342.73592
888.332	323.42739
888.503	135.42629
888.674	381.19312
888.844	561.90363
889.015	329.72623
889.186	219.89264
889.356	496.97499
889.527	144.85174
889.698	652.65294
889.868	237.86826
890.039	391.19968
890.209	294.46963
890.38	390.7283
890.551	349.64026
890.721	380.538
890.892	424.93472
891.062	402.22183
891.233	540.78718
891.403	459.54255
891.574	264.14153
891.744	261.71582
891.914	341.31682
892.085	354.61944
892.255	106.43274
892.425	433.40283
892.596	299.80802
892.766	382.74647
892.936	423.10398
893.107	395.3984
893.277	153.62746
893.447	159.8576
893.618	99.39212
893.788	191.85737
893.958	122.29157
894.128	97.32639
894.298	111.43933
894.468	154.08056
894.639	65.36089
894.809	35.76108
894.979	68.94322
895.149	78.50226
895.319	63.35928
895.489	109.12927
895.659	137.66272
895.829	84.73237
895.999	85.54485
896.169	70.79945
896.339	94.44047
896.509	193.31116
896.679	193.91583
896.849	232.22652
897.019	274.89265
897.189	251.12195
897.358	219.00821
897.528	339.21806
897.698	202.9554
897.868	313.93936
898.038	645.42296
898.208	622.1629
898.377	212.46335
898.547	997.25366
898.717	1450.67253
898.886	434.26377
899.056	639.87317
899.226	1448.84003
899.395	773.44311
899.565	1294.93296
899.735	727.46011
899.904	931.11641
900.074	1011.50468
900.244	287.1215
900.413	1250.6224
900.583	416.87903
900.752	1182.88262
900.922	1030.32211
901.091	181.65697
901.261	1770.68766
901.43	512.05435
901.599	2217.4424
901.769	1453.9358
901.938	1020.6291
902.108	1615.17447
902.277	782.49315
902.446	414.31559
902.616	396.5389
902.785	553.8172
902.954	698.12666
903.124	504.16637
903.293	299.82232
903.462	140.23889
903.631	200.25548
903.801	146.82245
903.97	59.18676
904.139	111.52832
904.308	86.17554
904.477	66.72623
904.646	39.25126
904.816	63.23217
904.985	103.23955
905.154	144.69333
