Data from WindowProjectSample_Transmission__16__00016.txt Node

Date: Sat May 03 15:10:28 EDT 2025
User: jessi
Spectrometer: SR400872
Trigger mode: 0
Integration Time (sec): 5.000010E-1
Scans to average: 6
Electric dark correction enabled: true
Nonlinearity correction enabled: true
Boxcar width: 0
XAxis mode: Wavelengths
Number of Pixels in Spectrum: 3648
>>>>>Begin Spectral Data<<<<<
184.909	18221.64314
185.132	2524.84187
185.355	22910.61767
185.578	-8066.81998
185.801	372.13606
186.024	-1512.87222
186.247	765.76505
186.47	1195.28574
186.693	-220.60375
186.916	-2812.70434
187.139	-2667.28393
187.362	1689.25212
187.585	2825.86549
187.808	-3364.30641
188.031	383.4556
188.254	-1354.06627
188.476	-708.95604
188.699	2588.67573
188.922	-657.6898
189.145	-10034.22127
189.368	-426.1018
189.591	-1267.8825
189.813	-1629.67423
190.036	1414.52134
190.259	1767.83797
190.482	628.93053
190.705	10534.33374
190.927	-1006.0106
191.15	3419.0818
191.373	2167.3559
191.595	-2288.90765
191.818	2557.11594
192.041	-282.66808
192.263	2635.37771
192.486	1746.75687
192.709	-5465.3462
192.931	2841.04425
193.154	-6220.98861
193.377	187358.76505
193.599	1407.41295
193.822	1767.47873
194.044	-2128.08747
194.267	511.0716
194.489	-705.04918
194.712	1460.43812
194.934	3275.35242
195.157	-14929.85664
195.379	692.05631
195.602	2448.66752
195.824	2142.64492
196.047	2269.2304
196.269	3050.15454
196.492	3705.57754
196.714	2546.93944
196.936	1243.22983
197.159	1396.51718
197.381	-2164.61028
197.604	-1412.0842
197.826	6613.73445
198.048	3195.1756
198.271	3911.94386
198.493	2203.1736
198.715	-6016.31488
198.938	-521.87257
199.16	1916.3374
199.382	1477.12463
199.604	-765.28767
199.827	9803.0656
200.049	914.46694
200.271	-2939.42188
200.493	-52983.86741
200.715	2380.36733
200.938	6694.19643
201.16	-7018.17411
201.382	-2836.50941
201.604	-2047.58626
201.826	6817.55619
202.048	858.16952
202.27	-17900.46687
202.492	4894.91866
202.715	-1140.34986
202.937	4273.84526
203.159	-2217.25859
203.381	930.97569
203.603	-3887.04215
203.825	-2746.99766
204.047	3307.40362
204.269	-2176.61015
204.491	2040.75452
204.713	1852.59011
204.935	15212.88957
205.156	1737.18765
205.378	-8585.7659
205.6	-4162.24846
205.822	8935.01534
206.044	-551.0427
206.266	3955.48525
206.488	1020.9125
206.71	27407.50518
206.932	2625.75384
207.153	-4832.90573
207.375	-1935.19156
207.597	8929.49857
207.819	4337.48265
208.041	2229.20895
208.262	-2455.06362
208.484	-1175.84662
208.706	-2706.55178
208.927	30479.02468
209.149	1066.61395
209.371	-6459.70691
209.593	1345.89979
209.814	5009.50035
210.036	-2740.55742
210.258	-5063.45441
210.479	-1176.0866
210.701	955.55257
210.922	6360.93555
211.144	-1273.80648
211.366	-6022.76817
211.587	-633.3521
211.809	9732.29022
212.03	-1241.75089
212.252	-1828.13252
212.473	739.06679
212.695	-1905.53816
212.916	2681.4967
213.138	3722.39727
213.359	-1900.97595
213.581	6505.74925
213.802	-1969.5961
214.024	17807.32267
214.245	-3467.8586
214.466	-817.73996
214.688	1534.36539
214.909	954.41508
215.131	-99306.64914
215.352	1554.41561
215.573	2532.54983
215.795	3051.39468
216.016	4292.05652
216.237	-632.13454
216.459	6482.53409
216.68	104126.63442
216.901	-83820.26843
217.122	2178.96742
217.344	6112.86732
217.565	-57850.06331
217.786	1509.0882
218.007	1923.93785
218.228	-1152.14767
218.45	-1255.80845
218.671	-1292.29334
218.892	1217.07044
219.113	-18237.2372
219.334	-399.48452
219.555	-5791.04033
219.776	1682.06092
219.997	3480.792
220.219	957.51147
220.44	2593.10104
220.661	-3007.03318
220.882	3430.58085
221.103	-1421.63717
221.324	1004.3269
221.545	2261.48741
221.766	-6118.2481
221.987	3964.53625
222.208	-1777.51828
222.429	3531.45272
222.65	-178.49262
222.87	-511.55512
223.091	7788.4583
223.312	2413.67501
223.533	6884.68291
223.754	1838.11603
223.975	1470.65179
224.196	-11859.62123
224.417	1023.5081
224.637	953.41805
224.858	-659.5934
225.079	6833.1305
225.3	593.00991
225.521	2088.70368
225.741	1678.99621
225.962	769.58677
226.183	323.17453
226.404	667.95377
226.624	582.42451
226.845	369.54933
227.066	405.33287
227.286	187.46282
227.507	94.24535
227.728	74.8775
227.948	130.55646
228.169	35.20494
228.389	43.19385
228.61	25.4977
228.831	36.05346
229.051	2.64066
229.272	21.09963
229.492	29.85411
229.713	9.33617
229.933	23.77488
230.154	19.97375
230.374	30.76695
230.595	24.59745
230.815	17.91356
231.036	23.54428
231.256	-4.27576
231.477	42.57429
231.697	24.51882
231.917	22.20904
232.138	36.40823
232.358	74.6316
232.579	66.43944
232.799	14.22892
233.019	62.48496
233.24	80.64894
233.46	27.85816
233.68	43.75951
233.901	34.21221
234.121	21.07802
234.341	7.31301
234.561	-5.47441
234.782	13.73888
235.002	45.27656
235.222	2.84903
235.442	42.87253
235.662	18.74511
235.883	42.20176
236.103	37.02424
236.323	25.85152
236.543	17.32959
236.763	30.75255
236.983	30.07649
237.203	30.39848
237.423	42.89776
237.643	61.97106
237.864	56.25979
238.084	14.37378
238.304	21.42952
238.524	32.1451
238.744	31.47741
238.964	47.96272
239.184	43.35467
239.404	44.28596
239.624	25.02112
239.843	41.5751
240.063	23.55541
240.283	14.55071
240.503	16.48288
240.723	18.14913
240.943	8.63501
241.163	13.14673
241.383	10.76431
241.603	5.50865
241.822	6.531
242.042	4.8099
242.262	5.72933
242.482	6.49497
242.702	8.4555
242.921	3.09015
243.141	5.817
243.361	4.95329
243.581	7.12019
243.8	6.62475
244.02	3.50936
244.24	7.5613
244.459	7.60082
244.679	14.85208
244.899	9.00506
245.118	10.57141
245.338	9.66964
245.558	11.0523
245.777	6.10518
245.997	7.1793
246.216	7.98847
246.436	3.8641
246.655	3.36119
246.875	2.34422
247.094	4.74261
247.314	1.68812
247.533	2.63246
247.753	3.47493
247.972	2.62955
248.192	1.13712
248.411	1.65236
248.631	3.29681
248.85	3.88682
249.07	2.9466
249.289	5.43801
249.508	3.74985
249.728	6.03708
249.947	6.51165
250.166	6.9314
250.386	4.45225
250.605	5.29031
250.824	8.45261
251.044	6.48117
251.263	20.91817
251.482	10.51008
251.701	9.73047
251.921	0.43133
252.14	3.85149
252.359	3.36885
252.578	7.85654
252.798	3.03172
253.017	7.29202
253.236	3.61115
253.455	4.54068
253.674	9.97817
253.893	4.52737
254.112	5.85888
254.331	9.17406
254.551	7.53052
254.77	3.90632
254.989	11.57121
255.208	10.70624
255.427	12.72205
255.646	10.23578
255.865	17.63214
256.084	7.61446
256.303	8.32232
256.522	10.78636
256.741	2.25352
256.96	3.55325
257.179	6.70714
257.397	8.83217
257.616	4.45723
257.835	5.32941
258.054	11.7455
258.273	7.19378
258.492	9.00131
258.711	5.32489
258.93	2.1866
259.148	3.46951
259.367	3.47861
259.586	4.4375
259.805	2.02894
260.023	4.27999
260.242	3.45589
260.461	2.32305
260.68	1.453
260.898	3.95061
261.117	1.0818
261.336	0.88251
261.554	3.20251
261.773	3.20353
261.992	0.59871
262.21	3.26704
262.429	3.88539
262.648	6.27926
262.866	7.41223
263.085	4.79292
263.303	3.96365
263.522	7.78849
263.74	8.38961
263.959	12.8505
264.178	6.37448
264.396	5.79951
264.615	4.18987
264.833	9.69687
265.051	8.4221
265.27	8.24229
265.488	9.1042
265.707	5.19315
265.925	9.15988
266.144	4.31649
266.362	5.26829
266.58	4.66827
266.799	4.1825
267.017	4.73279
267.235	4.79297
267.454	3.01868
267.672	1.85747
267.89	3.7525
268.109	4.06973
268.327	3.81579
268.545	1.00268
268.763	3.62827
268.982	1.54512
269.2	4.32668
269.418	2.76128
269.636	1.90446
269.854	3.74324
270.073	2.97809
270.291	1.73836
270.509	1.54592
270.727	3.53757
270.945	6.34929
271.163	6.35588
271.381	1.38138
271.599	2.53863
271.817	4.52922
272.036	1.51164
272.254	2.85265
272.472	2.19145
272.69	2.13721
272.908	2.24716
273.126	3.73067
273.344	4.76747
273.562	1.71146
273.779	2.04825
273.997	3.23954
274.215	3.83746
274.433	2.84676
274.651	3.97337
274.869	4.08991
275.087	2.36282
275.305	3.63496
275.523	2.06121
275.74	2.87445
275.958	4.73782
276.176	6.83324
276.394	2.22474
276.612	2.94604
276.829	2.48916
277.047	2.25748
277.265	2.67427
277.483	3.06099
277.7	3.73788
277.918	2.83354
278.136	5.61061
278.353	2.77737
278.571	1.64538
278.789	4.46935
279.006	1.13374
279.224	2.73138
279.442	4.54665
279.659	3.03453
279.877	2.47161
280.094	4.87266
280.312	1.09999
280.529	3.0348
280.747	0.97153
280.964	2.37297
281.182	5.42534
281.399	2.55472
281.617	3.38893
281.834	2.38811
282.052	1.77919
282.269	2.53912
282.487	2.45382
282.704	1.59964
282.921	2.25484
283.139	2.93552
283.356	3.80469
283.574	3.09968
283.791	1.83442
284.008	4.62432
284.226	2.60272
284.443	2.79934
284.66	3.68551
284.877	3.01579
285.095	1.90204
285.312	1.48268
285.529	1.05771
285.746	0.76379
285.964	1.93341
286.181	1.17167
286.398	1.70481
286.615	2.5474
286.832	2.30087
287.05	0.8579
287.267	1.59692
287.484	2.35697
287.701	2.42725
287.918	2.31042
288.135	2.62154
288.352	1.15096
288.569	1.21072
288.786	2.16493
289.003	1.62354
289.22	2.54547
289.437	1.40875
289.654	2.49069
289.871	2.82939
290.088	2.79025
290.305	2.11134
290.522	1.51407
290.739	2.00145
290.956	2.84063
291.173	3.58623
291.39	3.20095
291.607	2.36436
291.824	1.61727
292.04	1.12634
292.257	2.69887
292.474	3.14893
292.691	1.82132
292.908	0.91608
293.125	1.65245
293.341	0.92361
293.558	4.62385
293.775	1.88359
293.992	2.06569
294.208	0.74076
294.425	1.084
294.642	1.74819
294.858	2.4571
295.075	0.61471
295.292	1.70981
295.508	2.29002
295.725	3.55447
295.942	1.71547
296.158	1.13923
296.375	1.94151
296.591	1.53045
296.808	1.64901
297.024	1.78328
297.241	1.94403
297.458	2.23704
297.674	0.16951
297.891	1.818
298.107	1.29923
298.323	1.05371
298.54	2.68715
298.756	1.07913
298.973	0.49883
299.189	2.60219
299.406	1.08289
299.622	2.6157
299.838	2.64719
300.055	2.35516
300.271	0.70064
300.487	0.85055
300.704	1.09707
300.92	0.82338
301.136	3.64104
301.353	2.69327
301.569	1.88831
301.785	2.06472
302.001	2.51979
302.218	1.97864
302.434	2.09533
302.65	0.55088
302.866	1.38318
303.083	3.7688
303.299	3.2898
303.515	1.78164
303.731	1.85587
303.947	0.71967
304.163	1.17449
304.379	2.08487
304.595	2.27569
304.812	1.33011
305.028	1.02942
305.244	1.57482
305.46	2.58486
305.676	2.56838
305.892	3.07878
306.108	1.90245
306.324	1.39309
306.54	3.41303
306.756	2.49226
306.972	2.32256
307.187	1.58777
307.403	3.20081
307.619	1.34117
307.835	2.60914
308.051	3.06279
308.267	0.843
308.483	2.49252
308.699	2.27823
308.914	1.8992
309.13	1.77603
309.346	0.39089
309.562	0.94797
309.778	0.57478
309.993	2.28779
310.209	1.78831
310.425	0.79395
310.641	1.51104
310.856	0.83448
311.072	0.88402
311.288	1.73495
311.503	1.87884
311.719	0.38963
311.935	0.27579
312.15	2.04071
312.366	1.76272
312.581	2.36427
312.797	1.817
313.013	2.26312
313.228	1.38586
313.444	1.9097
313.659	1.21393
313.875	2.09169
314.09	1.83447
314.306	2.8444
314.521	2.59647
314.737	2.42119
314.952	2.0067
315.168	1.54029
315.383	2.47995
315.599	1.66893
315.814	1.47669
316.029	2.39054
316.245	0.64185
316.46	0.6225
316.675	2.88376
316.891	3.50294
317.106	4.32109
317.321	2.52539
317.537	2.48497
317.752	2.59505
317.967	2.64255
318.183	1.28639
318.398	1.6044
318.613	2.69041
318.828	3.22253
319.043	2.55358
319.259	1.52527
319.474	2.27356
319.689	2.82811
319.904	0.63395
320.119	2.65617
320.334	2.27455
320.549	1.80218
320.765	2.84756
320.98	2.25425
321.195	2.70133
321.41	1.76949
321.625	2.52091
321.84	3.58574
322.055	3.6313
322.27	1.46772
322.485	1.03588
322.7	2.04087
322.915	2.99278
323.13	1.20003
323.345	3.17185
323.56	2.69627
323.775	2.68248
323.989	2.44917
324.204	1.9564
324.419	2.58347
324.634	0.89157
324.849	1.8843
325.064	4.01326
325.279	2.89266
325.493	2.44879
325.708	2.68186
325.923	1.19702
326.138	1.25185
326.352	3.31352
326.567	2.63886
326.782	1.58122
326.997	1.22291
327.211	2.24056
327.426	2.35874
327.641	1.49923
327.855	0.65898
328.07	2.29252
328.285	3.45541
328.499	1.66713
328.714	2.52054
328.928	2.60379
329.143	2.07431
329.358	2.84433
329.572	2.91367
329.787	3.03314
330.001	4.2337
330.216	0.79751
330.43	3.46546
330.645	3.49163
330.859	2.78968
331.074	1.30185
331.288	2.3059
331.503	2.95983
331.717	1.09102
331.931	1.82517
332.146	1.99757
332.36	3.48512
332.575	2.44767
332.789	2.07292
333.003	1.89463
333.218	2.52934
333.432	1.72726
333.646	2.51576
333.86	3.26339
334.075	3.38727
334.289	1.67601
334.503	1.35472
334.717	2.64538
334.932	2.51951
335.146	3.20563
335.36	1.88007
335.574	2.51768
335.788	2.25541
336.003	2.98331
336.217	2.4715
336.431	2.42452
336.645	1.59655
336.859	1.06998
337.073	1.79438
337.287	2.31498
337.501	1.02768
337.715	2.07434
337.929	2.6868
338.143	1.2108
338.357	2.21677
338.571	1.09716
338.785	2.1848
338.999	1.58156
339.213	1.67429
339.427	0.76437
339.641	2.84474
339.855	1.98144
340.069	1.44009
340.283	2.90499
340.497	3.51925
340.711	2.36661
340.924	1.56262
341.138	1.11444
341.352	0.76691
341.566	2.17499
341.78	0.58036
341.993	1.33448
342.207	1.09745
342.421	2.22591
342.635	1.98594
342.848	1.44651
343.062	0.18394
343.276	1.31401
343.49	4.10142
343.703	1.44903
343.917	2.43543
344.131	2.57884
344.344	1.45566
344.558	1.32585
344.771	1.18545
344.985	3.13522
345.199	3.11314
345.412	2.11584
345.626	2.02508
345.839	0.748
346.053	1.07023
346.266	0.99244
346.48	2.60972
346.693	2.15459
346.907	2.31741
347.12	1.15757
347.334	2.16199
347.547	2.14351
347.76	1.7705
347.974	2.90879
348.187	2.16214
348.401	1.66021
348.614	1.52424
348.827	1.60778
349.041	2.44544
349.254	0.68332
349.467	1.68148
349.681	0.83771
349.894	1.42378
350.107	2.96596
350.32	2.99622
350.534	0.40531
350.747	1.57122
350.96	1.20143
351.173	1.38943
351.386	1.75476
351.6	1.55704
351.813	1.25391
352.026	2.00944
352.239	0.77756
352.452	1.28062
352.665	2.36128
352.878	1.61276
353.092	3.66145
353.305	2.41889
353.518	2.05143
353.731	1.12839
353.944	3.06561
354.157	1.12483
354.37	1.01341
354.583	0.89874
354.796	0.75394
355.009	2.66132
355.222	1.88426
355.435	1.87293
355.647	2.66045
355.86	0.88975
356.073	1.60665
356.286	1.38601
356.499	2.40354
356.712	2.04749
356.925	2.1587
357.138	2.4552
357.35	0.93634
357.563	1.24384
357.776	1.6982
357.989	1.2954
358.201	2.08834
358.414	1.58477
358.627	2.50836
358.84	1.48656
359.052	0.99939
359.265	0.77481
359.478	2.50124
359.69	-0.40583
359.903	1.96849
360.116	2.23261
360.328	0.37864
360.541	2.16265
360.753	0.75701
360.966	1.10668
361.179	1.21295
361.391	1.11174
361.604	0.69397
361.816	1.10175
362.029	0.85009
362.241	0.79421
362.454	0.99466
362.666	0.86287
362.879	1.40534
363.091	1.2784
363.304	0.89179
363.516	1.46672
363.728	0.63149
363.941	1.81544
364.153	0.813
364.366	-0.03777
364.578	0.79889
364.79	1.83557
365.003	1.27369
365.215	1.16414
365.427	1.78675
365.639	2.3975
365.852	1.84013
366.064	3.05687
366.276	0.947
366.488	1.81508
366.701	1.15093
366.913	1.27773
367.125	1.38724
367.337	0.96857
367.549	1.19474
367.762	1.54739
367.974	1.64715
368.186	0.81631
368.398	2.28297
368.61	2.03199
368.822	2.09354
369.034	1.69112
369.246	2.00277
369.458	3.36786
369.67	0.87277
369.882	2.84748
370.094	0.08632
370.306	2.98614
370.518	1.29253
370.73	0.65074
370.942	0.76792
371.154	1.16963
371.366	0.87621
371.578	1.58836
371.79	0.64945
372.002	2.4806
372.214	2.66198
372.425	1.63917
372.637	2.36755
372.849	1.43595
373.061	-0.09971
373.273	1.72887
373.484	1.89724
373.696	2.00515
373.908	-0.15326
374.12	2.27831
374.331	1.84059
374.543	0.83322
374.755	0.6858
374.967	1.51782
375.178	1.94677
375.39	1.29196
375.602	1.60657
375.813	0.67267
376.025	0.44758
376.236	1.40862
376.448	1.56215
376.66	0.96818
376.871	1.06102
377.083	2.14337
377.294	2.0666
377.506	1.07049
377.717	2.19678
377.929	1.57425
378.14	0.65766
378.352	1.72089
378.563	1.68973
378.775	2.27495
378.986	0.85186
379.197	1.44551
379.409	1.07634
379.62	1.94649
379.832	1.64779
380.043	1.25753
380.254	1.43519
380.466	0.50691
380.677	3.50497
380.888	2.94789
381.1	3.20014
381.311	2.90899
381.522	1.36916
381.733	3.49294
381.945	1.31273
382.156	1.56435
382.367	1.15971
382.578	3.30124
382.789	3.23546
383.001	1.2815
383.212	2.0606
383.423	2.3831
383.634	2.24727
383.845	1.56779
384.056	1.00835
384.267	1.24761
384.478	1.12689
384.69	0.55796
384.901	1.77473
385.112	1.47015
385.323	2.23419
385.534	1.65447
385.745	1.78191
385.956	1.67832
386.167	0.65725
386.378	1.53563
386.588	0.3834
386.799	0.79144
387.01	0.09951
387.221	1.93495
387.432	1.05598
387.643	2.77231
387.854	1.21722
388.065	1.07603
388.275	1.28518
388.486	1.09698
388.697	1.29994
388.908	1.04563
389.119	2.2601
389.329	2.46384
389.54	1.33194
389.751	1.7483
389.962	2.1826
390.172	1.49978
390.383	0.89395
390.594	0.96874
390.804	0.85831
391.015	0.8313
391.226	1.32054
391.436	1.5024
391.647	1.68398
391.858	1.66439
392.068	0.26238
392.279	0.4145
392.489	1.15446
392.7	2.13623
392.91	0.48339
393.121	0.71897
393.331	1.58704
393.542	1.95408
393.752	1.53222
393.963	1.2556
394.173	1.23648
394.384	1.58242
394.594	1.23864
394.804	0.43193
395.015	1.30592
395.225	1.5248
395.436	0.52204
395.646	1.64799
395.856	0.43036
396.067	0.52568
396.277	2.00685
396.487	1.30262
396.697	1.12315
396.908	1.83293
397.118	1.831
397.328	1.32324
397.538	2.02247
397.749	0.71621
397.959	1.83186
398.169	1.85256
398.379	0.41232
398.589	1.72683
398.8	1.20585
399.01	0.80407
399.22	1.15491
399.43	2.75465
399.64	0.82633
399.85	1.8864
400.06	0.96019
400.27	0.92894
400.48	1.41935
400.69	2.3612
400.9	1.0259
401.11	0.87354
401.32	1.99116
401.53	0.90424
401.74	2.35326
401.95	1.84782
402.16	0.41227
402.37	1.5241
402.58	0.91176
402.79	1.84241
403	1.76588
403.209	0.88394
403.419	1.85022
403.629	0.96179
403.839	1.7288
404.049	1.82601
404.258	0.62149
404.468	0.56767
404.678	1.62409
404.888	1.62619
405.097	0.49967
405.307	1.20966
405.517	1.6241
405.727	1.20872
405.936	0.91401
406.146	1.42289
406.356	2.16632
406.565	1.276
406.775	0.78463
406.984	0.75631
407.194	2.416
407.404	1.34041
407.613	1.43777
407.823	1.81368
408.032	1.99237
408.242	1.9699
408.451	1.00621
408.661	1.20767
408.87	2.39387
409.08	1.00871
409.289	1.57667
409.499	1.14682
409.708	1.52349
409.918	0.04347
410.127	1.22572
410.336	2.37522
410.546	1.66514
410.755	1.0238
410.964	0.99234
411.174	0.71168
411.383	1.69383
411.592	1.69231
411.802	0.50935
412.011	2.05925
412.22	1.39109
412.429	2.40023
412.639	2.23634
412.848	2.34294
413.057	2.43322
413.266	2.07924
413.475	1.36313
413.685	1.85001
413.894	1.97422
414.103	2.19056
414.312	1.98624
414.521	1.34615
414.73	1.60722
414.939	2.79262
415.148	1.81889
415.357	1.69437
415.566	1.17533
415.776	1.10549
415.985	0.90991
416.194	1.85399
416.403	2.32015
416.611	0.39254
416.82	0.87311
417.029	1.3417
417.238	0.74418
417.447	0.70688
417.656	0.96113
417.865	0.7807
418.074	0.92944
418.283	1.17624
418.492	1.80662
418.7	1.84025
418.909	2.47899
419.118	1.37658
419.327	1.85695
419.536	1.61277
419.744	1.11001
419.953	2.34157
420.162	2.18823
420.371	1.07355
420.579	1.09507
420.788	2.21615
420.997	2.18573
421.205	2.20875
421.414	1.88698
421.623	2.0182
421.831	1.48231
422.04	2.35701
422.249	1.50648
422.457	2.11029
422.666	1.46665
422.874	2.55877
423.083	2.48894
423.291	2.40547
423.5	2.10369
423.708	2.25205
423.917	2.77435
424.125	2.12909
424.334	1.80387
424.542	3.72819
424.751	2.9542
424.959	2.661
425.167	3.26616
425.376	3.01518
425.584	2.33608
425.793	2.60762
426.001	1.61803
426.209	2.62947
426.418	1.59272
426.626	1.71023
426.834	1.40805
427.042	1.86402
427.251	1.30966
427.459	2.27425
427.667	1.79535
427.875	1.1097
428.084	1.47759
428.292	2.67748
428.5	2.138
428.708	1.36093
428.916	1.28904
429.124	1.97237
429.333	1.60606
429.541	1.7261
429.749	1.83362
429.957	1.90999
430.165	3.41697
430.373	1.03447
430.581	1.85853
430.789	2.7166
430.997	1.77464
431.205	1.40589
431.413	1.95493
431.621	1.56468
431.829	2.27983
432.037	1.654
432.245	2.08266
432.453	2.2512
432.661	1.64391
432.869	2.98854
433.076	1.45423
433.284	2.0105
433.492	2.43905
433.7	2.83666
433.908	1.91026
434.116	2.20813
434.323	2.17791
434.531	2.05438
434.739	2.36777
434.947	2.60276
435.154	2.60637
435.362	2.16708
435.57	1.89743
435.778	1.74829
435.985	2.21296
436.193	1.77937
436.401	2.65868
436.608	2.16486
436.816	1.83256
437.023	3.07111
437.231	3.0605
437.439	2.34334
437.646	2.40651
437.854	2.44272
438.061	2.60831
438.269	1.97612
438.476	2.64136
438.684	2.17834
438.891	2.09663
439.099	1.99151
439.306	1.56218
439.514	1.71345
439.721	2.85499
439.929	2.13956
440.136	2.97104
440.343	2.83836
440.551	2.50326
440.758	4.47228
440.965	3.29133
441.173	2.94011
441.38	2.49978
441.587	3.0039
441.795	2.49332
442.002	2.64645
442.209	2.81487
442.416	2.80462
442.624	2.77953
442.831	2.67926
443.038	2.12299
443.245	1.86687
443.452	2.11428
443.66	2.73067
443.867	1.98064
444.074	1.89876
444.281	1.96612
444.488	2.23442
444.695	2.52193
444.902	2.2828
445.109	3.10623
445.316	2.46679
445.523	2.69482
445.73	2.4255
445.937	3.16639
446.144	3.4416
446.351	3.75091
446.558	2.66956
446.765	4.19073
446.972	4.07073
447.179	3.39423
447.386	4.33837
447.593	3.03832
447.8	4.11151
448.007	2.97796
448.214	2.95547
448.42	2.56932
448.627	3.41447
448.834	2.54482
449.041	2.48941
449.248	2.38605
449.454	2.93805
449.661	3.57984
449.868	2.233
450.075	2.05206
450.281	1.55223
450.488	1.90399
450.695	2.07427
450.901	1.89999
451.108	2.32286
451.315	3.03003
451.521	2.22999
451.728	3.07458
451.935	1.98108
452.141	2.28804
452.348	2.55368
452.554	2.36653
452.761	2.22669
452.967	3.4464
453.174	2.60496
453.38	2.51204
453.587	1.71308
453.793	2.54774
454	3.08207
454.206	3.7959
454.413	3.11472
454.619	2.86039
454.825	2.12785
455.032	2.83763
455.238	3.09622
455.445	1.72046
455.651	2.646
455.857	1.56996
456.064	2.39123
456.27	2.31566
456.476	2.23705
456.682	1.71322
456.889	2.58268
457.095	2.75497
457.301	3.94153
457.507	2.58534
457.714	2.52184
457.92	2.47011
458.126	1.92464
458.332	2.32869
458.538	2.20248
458.744	2.31533
458.951	2.43412
459.157	4.09464
459.363	3.07829
459.569	3.07937
459.775	3.97403
459.981	3.13081
460.187	3.60927
460.393	3.97329
460.599	4.55079
460.805	3.6716
461.011	3.3106
461.217	3.82587
461.423	3.46508
461.629	2.77344
461.835	3.23535
462.041	2.74492
462.247	3.81255
462.453	2.74934
462.658	2.71959
462.864	3.27743
463.07	3.00983
463.276	2.76653
463.482	2.7755
463.688	3.69672
463.893	2.26085
464.099	2.67449
464.305	3.66987
464.511	2.29034
464.716	2.59573
464.922	3.12595
465.128	2.1373
465.333	3.72391
465.539	3.15271
465.745	2.81619
465.95	2.98797
466.156	4.58682
466.362	3.47394
466.567	2.82251
466.773	2.658
466.978	3.91353
467.184	2.42919
467.389	1.81519
467.595	3.23646
467.8	2.38248
468.006	3.81815
468.211	3.69454
468.417	2.29524
468.622	3.08354
468.828	3.36285
469.033	3.11605
469.239	4.78077
469.444	2.41946
469.649	3.46765
469.855	2.72155
470.06	3.06135
470.266	2.21722
470.471	3.35509
470.676	3.14102
470.881	1.8416
471.087	3.75843
471.292	4.32363
471.497	2.13648
471.703	2.77993
471.908	2.509
472.113	2.97204
472.318	3.53981
472.523	2.34733
472.729	3.26098
472.934	3.38722
473.139	2.84542
473.344	3.39258
473.549	3.78358
473.754	2.51806
473.959	4.52909
474.164	2.62188
474.369	2.75773
474.575	3.46883
474.78	3.20998
474.985	2.67757
475.19	1.91945
475.395	2.4992
475.6	2.80188
475.804	3.91785
476.009	2.96578
476.214	2.90313
476.419	2.5713
476.624	2.02729
476.829	2.38822
477.034	3.28312
477.239	2.60973
477.444	3.2612
477.648	3.32273
477.853	3.42659
478.058	2.68428
478.263	2.53686
478.468	2.38662
478.672	2.58697
478.877	3.77339
479.082	4.14951
479.287	3.30786
479.491	3.02336
479.696	2.39143
479.901	3.58258
480.105	3.39196
480.31	2.66127
480.515	2.89557
480.719	4.27444
480.924	2.53535
481.128	2.34627
481.333	3.19468
481.538	3.39735
481.742	3.12862
481.947	3.90307
482.151	4.13153
482.356	4.13477
482.56	5.14765
482.765	5.53132
482.969	6.95298
483.174	7.82087
483.378	9.28511
483.582	9.48599
483.787	10.87012
483.991	10.7323
484.196	11.10122
484.4	11.00454
484.604	11.87806
484.809	10.26088
485.013	10.39264
485.217	9.25039
485.422	8.14555
485.626	7.26092
485.83	6.97932
486.034	6.36458
486.239	6.49738
486.443	6.46417
486.647	6.26821
486.851	7.19153
487.055	7.90692
487.26	7.24053
487.464	7.93266
487.668	7.29637
487.872	7.5621
488.076	8.3519
488.28	7.77994
488.484	7.31891
488.688	7.10912
488.892	7.22563
489.096	6.62845
489.3	6.09955
489.504	5.71475
489.708	5.75546
489.912	5.56553
490.116	5.30248
490.32	4.49378
490.524	5.19139
490.728	5.43925
490.932	5.45551
491.136	5.73954
491.34	6.77563
491.544	6.98985
491.748	6.68605
491.951	6.8475
492.155	6.67071
492.359	6.75553
492.563	5.64231
492.767	5.71257
492.97	5.05962
493.174	4.53446
493.378	4.27923
493.582	3.51189
493.785	3.60455
493.989	3.51025
494.193	3.40664
494.396	3.07217
494.6	3.53645
494.804	2.97197
495.007	2.87747
495.211	2.95954
495.414	3.05916
495.618	3.38516
495.822	3.95572
496.025	3.07045
496.229	3.65841
496.432	3.0559
496.636	3.36979
496.839	3.34337
497.043	4.25599
497.246	3.51841
497.45	3.25745
497.653	3.49773
497.856	3.45954
498.06	3.0383
498.263	3.35585
498.467	3.23923
498.67	3.83427
498.873	3.47586
499.077	3.18206
499.28	3.15463
499.483	3.38248
499.686	3.80496
499.89	3.55342
500.093	3.81237
500.296	2.95343
500.499	4.24552
500.703	3.28252
500.906	3.48587
501.109	4.36305
501.312	3.36867
501.515	3.25101
501.719	3.55622
501.922	4.17212
502.125	3.45579
502.328	3.24162
502.531	2.51889
502.734	3.4974
502.937	2.24256
503.14	3.369
503.343	2.83344
503.546	3.12724
503.749	2.90194
503.952	3.55706
504.155	2.67941
504.358	3.64166
504.561	3.50627
504.764	2.64813
504.967	3.35134
505.17	3.24658
505.373	4.32273
505.576	3.24565
505.778	3.81941
505.981	2.71754
506.184	4.05729
506.387	2.29054
506.59	4.56091
506.793	4.10719
506.995	3.45038
507.198	2.25851
507.401	3.4498
507.604	3.58898
507.806	2.64334
508.009	2.83785
508.212	3.63936
508.414	2.80793
508.617	2.83346
508.82	3.28201
509.022	4.21866
509.225	3.62894
509.427	2.34103
509.63	4.07362
509.833	3.31412
510.035	3.05834
510.238	2.44332
510.44	4.05008
510.643	2.21454
510.845	4.51831
511.048	3.58948
511.25	2.99776
511.453	3.2716
511.655	3.51977
511.858	3.12962
512.06	3.87359
512.262	3.36539
512.465	3.83816
512.667	3.21616
512.869	2.80176
513.072	3.56534
513.274	3.91671
513.476	3.91056
513.679	3.97948
513.881	2.85937
514.083	4.46294
514.286	2.93891
514.488	2.9663
514.69	2.86207
514.892	2.72489
515.094	3.73124
515.297	3.10109
515.499	3.4133
515.701	2.8267
515.903	4.36255
516.105	4.27538
516.307	3.82566
516.509	2.28971
516.711	2.60568
516.913	3.29071
517.116	3.23584
517.318	2.94182
517.52	3.76161
517.722	3.58159
517.924	2.68619
518.126	3.80036
518.328	3.1658
518.529	3.92415
518.731	4.87059
518.933	3.28485
519.135	3.57152
519.337	4.40254
519.539	3.9382
519.741	2.44991
519.943	3.4198
520.145	3.27992
520.346	4.00209
520.548	3.2282
520.75	3.5952
520.952	3.13049
521.153	3.70359
521.355	3.68095
521.557	2.94965
521.759	3.52531
521.96	3.34711
522.162	2.78943
522.364	4.01716
522.565	2.95752
522.767	3.84141
522.969	4.1406
523.17	3.63142
523.372	3.43329
523.573	3.11202
523.775	3.16969
523.977	2.53712
524.178	4.53518
524.38	2.89601
524.581	3.77942
524.783	2.86674
524.984	3.9108
525.186	3.55839
525.387	4.07202
525.589	3.77981
525.79	3.72468
525.991	3.38476
526.193	4.33208
526.394	3.38405
526.596	4.42217
526.797	4.52931
526.998	4.09245
527.2	3.94136
527.401	5.3467
527.602	5.51701
527.803	7.02928
528.005	7.13249
528.206	7.8994
528.407	8.33562
528.608	8.28581
528.81	8.58862
529.011	7.9338
529.212	9.24887
529.413	8.27299
529.614	7.94988
529.815	7.90973
530.017	7.22697
530.218	6.2409
530.419	5.33003
530.62	5.20201
530.821	5.01783
531.022	3.62979
531.223	4.80174
531.424	4.65875
531.625	4.63374
531.826	4.32963
532.027	4.57735
532.228	5.51112
532.429	5.05156
532.63	5.05713
532.831	5.52022
533.032	5.46413
533.233	6.1994
533.433	5.86465
533.634	6.28358
533.835	5.64827
534.036	5.23184
534.237	5.21454
534.438	4.88712
534.638	4.08147
534.839	4.12726
535.04	4.36359
535.241	3.62454
535.441	4.77416
535.642	4.05721
535.843	3.09693
536.043	3.45832
536.244	3.60657
536.445	3.81521
536.645	4.60703
536.846	4.28823
537.047	4.83979
537.247	3.47803
537.448	3.78381
537.648	3.92855
537.849	3.65549
538.049	3.68599
538.25	3.97331
538.451	4.03135
538.651	3.18816
538.851	3.83882
539.052	4.35962
539.252	3.9576
539.453	3.44443
539.653	3.55027
539.854	3.40626
540.054	3.73625
540.254	4.78685
540.455	5.25997
540.655	4.63046
540.855	5.45975
541.056	6.36193
541.256	6.15431
541.456	6.91546
541.657	6.07003
541.857	7.20842
542.057	5.68842
542.257	5.70534
542.458	6.38011
542.658	6.3411
542.858	4.66515
543.058	5.59902
543.258	4.90682
543.458	3.60283
543.659	3.42966
543.859	4.38432
544.059	4.36567
544.259	3.68958
544.459	4.20149
544.659	3.34712
544.859	3.81294
545.059	3.23022
545.259	3.94456
545.459	3.7163
545.659	3.99787
545.859	3.55358
546.059	3.69545
546.259	2.96028
546.459	2.77203
546.659	2.87796
546.859	4.06559
547.059	3.84495
547.258	3.84694
547.458	4.05586
547.658	2.98314
547.858	3.01764
548.058	3.89162
548.258	3.62447
548.457	3.02838
548.657	5.32509
548.857	3.46824
549.057	4.38797
549.256	3.92652
549.456	3.49518
549.656	2.25578
549.855	5.12993
550.055	3.43795
550.255	5.08182
550.454	3.88783
550.654	4.18275
550.853	4.75961
551.053	4.19812
551.253	3.75919
551.452	4.02185
551.652	2.77721
551.851	2.66434
552.051	3.27959
552.25	3.10873
552.45	3.08724
552.649	3.20837
552.849	2.99739
553.048	3.69724
553.248	4.00236
553.447	3.027
553.646	4.0192
553.846	5.15436
554.045	4.52847
554.244	2.86394
554.444	4.97516
554.643	3.20903
554.842	4.84739
555.042	5.48491
555.241	3.33947
555.44	2.89924
555.64	4.13899
555.839	5.0372
556.038	4.00814
556.237	3.14903
556.436	3.77423
556.636	4.1282
556.835	2.98586
557.034	5.31004
557.233	3.51522
557.432	2.843
557.631	4.56563
557.83	3.57969
558.029	3.35865
558.228	3.52655
558.427	2.8423
558.626	4.32573
558.825	3.02313
559.024	3.86793
559.223	5.16474
559.422	3.7513
559.621	4.06059
559.82	1.77929
560.019	3.7369
560.218	3.5941
560.417	1.33571
560.616	3.3188
560.815	6.49586
561.014	2.42386
561.212	4.84159
561.411	3.56333
561.61	2.51116
561.809	3.41925
562.008	4.70647
562.206	3.52048
562.405	4.28099
562.604	3.34037
562.803	3.86231
563.001	3.63597
563.2	2.47479
563.399	4.16205
563.597	2.83821
563.796	3.70207
563.995	2.61409
564.193	4.16971
564.392	3.44193
564.59	5.41246
564.789	2.09769
564.988	3.17712
565.186	3.52661
565.385	3.20345
565.583	3.19157
565.782	3.32377
565.98	3.35499
566.179	3.4941
566.377	2.47706
566.575	2.94687
566.774	4.62006
566.972	4.14695
567.171	5.29657
567.369	4.73609
567.567	3.69025
567.766	4.15653
567.964	2.07622
568.162	4.11
568.361	4.69096
568.559	3.5893
568.757	3.88301
568.956	3.91811
569.154	3.62208
569.352	4.25388
569.55	3.51401
569.748	3.47989
569.947	2.85615
570.145	3.07028
570.343	2.83857
570.541	4.6218
570.739	2.45594
570.937	3.5552
571.135	3.98105
571.333	5.20902
571.532	4.8737
571.73	3.74085
571.928	4.51339
572.126	4.02955
572.324	3.01013
572.522	4.76553
572.72	5.77349
572.918	3.76903
573.116	4.04887
573.313	3.78601
573.511	3.51185
573.709	3.15328
573.907	4.27904
574.105	3.35051
574.303	2.1406
574.501	2.24939
574.699	3.77784
574.896	3.89398
575.094	4.04627
575.292	2.47768
575.49	4.47536
575.688	3.46742
575.885	4.74678
576.083	5.51059
576.281	4.1947
576.478	3.01872
576.676	4.01463
576.874	2.36761
577.071	3.48959
577.269	5.79785
577.467	3.82704
577.664	3.84472
577.862	4.6965
578.059	3.04304
578.257	4.33166
578.455	3.33586
578.652	3.82764
578.85	2.02647
579.047	3.76707
579.245	3.68739
579.442	3.86278
579.64	3.89098
579.837	2.10215
580.034	6.55975
580.232	3.50551
580.429	2.61548
580.627	4.5056
580.824	5.38239
581.021	4.31259
581.219	3.67795
581.416	2.82092
581.613	5.08011
581.811	5.28824
582.008	3.08049
582.205	4.50398
582.402	4.27457
582.6	6.26198
582.797	4.12269
582.994	4.43147
583.191	4.76798
583.388	4.05292
583.586	4.62794
583.783	5.24452
583.98	3.42216
584.177	4.33728
584.374	1.12851
584.571	3.95308
584.768	4.03359
584.965	3.37638
585.162	4.44163
585.359	6.02129
585.556	4.26231
585.753	4.30802
585.95	2.92213
586.147	3.46064
586.344	4.83081
586.541	3.70518
586.738	2.78812
586.935	4.05838
587.132	3.34835
587.329	5.08974
587.526	3.73603
587.722	9.36315
587.919	2.62088
588.116	4.4312
588.313	5.39019
588.51	6.53981
588.706	3.55598
588.903	4.71919
589.1	4.92129
589.297	6.72273
589.493	4.0049
589.69	4.53947
589.887	3.41659
590.083	3.13222
590.28	3.27955
590.477	4.80438
590.673	4.77905
590.87	5.48938
591.067	3.97149
591.263	4.77946
591.46	4.4845
591.656	3.69386
591.853	5.91471
592.049	3.29689
592.246	3.60338
592.442	5.42203
592.639	5.37736
592.835	2.81919
593.032	4.55595
593.228	2.56119
593.425	2.3815
593.621	2.35136
593.817	4.27238
594.014	3.21818
594.21	4.05321
594.406	5.14784
594.603	4.5854
594.799	3.45728
594.995	1.26644
595.192	5.12989
595.388	3.61298
595.584	3.46585
595.78	2.43863
595.977	6.58533
596.173	5.74429
596.369	3.55496
596.565	2.77585
596.761	2.4615
596.957	5.23668
597.154	3.02137
597.35	3.2562
597.546	3.20438
597.742	4.61906
597.938	4.00438
598.134	3.1528
598.33	4.26537
598.526	5.62183
598.722	4.62555
598.918	6.27898
599.114	4.78841
599.31	3.42445
599.506	4.46437
599.702	3.54161
599.898	4.5026
600.094	5.3144
600.29	5.07073
600.485	5.30152
600.681	3.40295
600.877	6.41374
601.073	4.358
601.269	6.98719
601.465	5.74712
601.66	3.16436
601.856	2.2284
602.052	6.35591
602.248	3.44026
602.443	1.8935
602.639	2.55889
602.835	3.31106
603.03	2.97232
603.226	4.75316
603.422	2.65237
603.617	3.24362
603.813	3.41733
604.009	3.19553
604.204	4.91499
604.4	2.28072
604.595	4.76252
604.791	2.63512
604.986	4.10297
605.182	2.89759
605.377	3.48622
605.573	3.28992
605.768	4.21821
605.964	4.62614
606.159	5.04064
606.355	5.40783
606.55	3.64722
606.746	5.33589
606.941	4.02367
607.136	6.70881
607.332	7.89919
607.527	2.8382
607.722	4.6107
607.918	3.91698
608.113	3.36938
608.308	4.88936
608.503	4.61324
608.699	4.40674
608.894	4.74326
609.089	3.12594
609.284	4.11509
609.479	3.20983
609.675	4.60492
609.87	3.79442
610.065	4.74224
610.26	5.29735
610.455	5.18442
610.65	3.86546
610.845	4.33954
611.04	5.41681
611.235	3.80864
611.43	3.69653
611.625	2.89479
611.82	6.05536
612.015	3.72205
612.21	6.49813
612.405	2.42923
612.6	6.78486
612.795	6.15007
612.99	5.50207
613.185	3.27522
613.38	3.84085
613.575	4.65378
613.77	8.32138
613.965	2.67935
614.159	3.32221
614.354	6.54854
614.549	6.1391
614.744	5.37595
614.938	3.43368
615.133	3.05004
615.328	6.59973
615.523	6.11264
615.717	8.83329
615.912	3.48304
616.107	5.11204
616.301	3.94623
616.496	3.55831
616.691	6.67453
616.885	5.81908
617.08	8.79892
617.274	6.48951
617.469	8.11886
617.664	5.7075
617.858	4.11505
618.053	5.40852
618.247	4.45222
618.442	1.5175
618.636	6.71794
618.831	4.00996
619.025	4.10263
619.219	8.79814
619.414	0.41733
619.608	5.00615
619.803	3.78597
619.997	8.00723
620.191	6.62919
620.386	5.50302
620.58	5.35354
620.774	2.87764
620.969	2.67005
621.163	4.98358
621.357	3.1085
621.551	4.50992
621.746	4.94763
621.94	4.60628
622.134	10.40164
622.328	8.59272
622.522	2.90277
622.716	6.57505
622.911	6.68244
623.105	5.79595
623.299	5.07529
623.493	10.17342
623.687	3.66869
623.881	4.76432
624.075	5.71144
624.269	6.9967
624.463	2.13231
624.657	2.61336
624.851	5.71412
625.045	6.22843
625.239	6.18819
625.433	4.01601
625.627	7.20401
625.821	3.58183
626.015	3.61687
626.209	4.95856
626.403	2.41007
626.596	5.35672
626.79	5.93155
626.984	2.8939
627.178	5.37629
627.372	5.72183
627.565	5.9584
627.759	2.61849
627.953	3.09129
628.147	5.55753
628.34	6.01352
628.534	7.90987
628.728	4.55935
628.921	6.27203
629.115	5.95993
629.309	6.33106
629.502	6.89615
629.696	4.97917
629.89	4.76596
630.083	5.51526
630.277	6.01625
630.47	8.25236
630.664	4.74879
630.857	3.12115
631.051	6.55511
631.244	7.61979
631.438	7.17385
631.631	3.7399
631.825	7.55099
632.018	6.08762
632.212	7.99824
632.405	7.29678
632.598	4.43045
632.792	5.10719
632.985	1.39756
633.178	4.42571
633.372	5.01471
633.565	5.19
633.758	7.88936
633.952	3.52987
634.145	3.97991
634.338	5.44602
634.531	4.4785
634.724	4.28482
634.918	5.05551
635.111	5.05943
635.304	4.26072
635.497	9.27529
635.69	5.912
635.883	7.70514
636.077	3.22797
636.27	6.26846
636.463	5.74869
636.656	6.08127
636.849	4.10657
637.042	6.43297
637.235	8.67074
637.428	7.02246
637.621	7.50872
637.814	8.21879
638.007	8.13376
638.2	8.79006
638.393	9.24941
638.586	3.93153
638.778	5.03853
638.971	6.26772
639.164	8.92936
639.357	7.50821
639.55	8.50679
639.743	7.30056
639.935	7.51664
640.128	9.91609
640.321	7.30493
640.514	6.50147
640.707	11.45942
640.899	7.67002
641.092	3.18312
641.285	22.7673
641.477	2.2257
641.67	10.43317
641.863	9.62947
642.055	6.69814
642.248	6.84849
642.441	5.80983
642.633	7.77697
642.826	8.40019
643.018	9.51903
643.211	10.48259
643.403	10.68492
643.596	11.1242
643.788	11.4381
643.981	5.96913
644.173	8.48073
644.366	6.45837
644.558	2.66398
644.751	8.3734
644.943	3.92688
645.135	11.10614
645.328	11.12123
645.52	8.69584
645.712	9.33822
645.905	14.48363
646.097	4.52425
646.289	7.95537
646.482	11.67045
646.674	5.67188
646.866	8.63477
647.058	7.98715
647.251	4.99631
647.443	5.68916
647.635	6.30264
647.827	5.36453
648.019	4.93924
648.211	7.09596
648.404	7.69636
648.596	10.71765
648.788	8.14437
648.98	7.49821
649.172	8.52865
649.364	8.21598
649.556	3.61434
649.748	12.20409
649.94	5.72728
650.132	8.53753
650.324	4.90205
650.516	5.99005
650.708	9.42486
650.9	4.09334
651.092	6.19092
651.284	3.74239
651.476	3.96577
651.667	8.66507
651.859	10.20335
652.051	7.00028
652.243	7.2743
652.435	6.05313
652.627	8.42235
652.818	8.19544
653.01	3.85798
653.202	5.30233
653.394	6.28252
653.585	8.21141
653.777	17.83983
653.969	11.03716
654.16	10.31302
654.352	5.53991
654.544	6.7957
654.735	10.69145
654.927	7.77167
655.118	11.21354
655.31	9.59013
655.502	9.82121
655.693	6.26164
655.885	8.5619
656.076	11.06915
656.268	7.8033
656.459	11.18378
656.651	10.96777
656.842	5.93695
657.034	5.9395
657.225	9.21928
657.416	10.40906
657.608	10.68684
657.799	7.23919
657.99	9.66536
658.182	5.26638
658.373	5.5738
658.564	9.07341
658.756	6.92442
658.947	6.18077
659.138	4.60129
659.33	5.5727
659.521	5.17086
659.712	6.14596
659.903	6.47668
660.094	5.82357
660.286	3.8954
660.477	11.47645
660.668	8.6129
660.859	7.55713
661.05	3.77496
661.241	8.91782
661.432	9.10728
661.623	6.57638
661.814	7.16142
662.006	3.92019
662.197	8.13803
662.388	10.9195
662.579	7.97814
662.77	15.26671
662.96	15.48331
663.151	11.01591
663.342	4.18255
663.533	8.77236
663.724	7.47686
663.915	13.16749
664.106	8.16356
664.297	13.16356
664.488	9.59372
664.678	7.38126
664.869	9.88742
665.06	11.14007
665.251	8.98111
665.442	9.3525
665.632	5.95898
665.823	13.58761
666.014	1.81255
666.204	10.06876
666.395	11.56007
666.586	16.86346
666.776	10.97377
666.967	13.22612
667.158	8.76867
667.348	12.24661
667.539	5.84042
667.729	10.49123
667.92	6.41118
668.111	10.77761
668.301	10.20891
668.492	7.99689
668.682	8.99215
668.873	7.95743
669.063	5.3567
669.253	8.93873
669.444	11.7353
669.634	8.02359
669.825	13.83647
670.015	11.1068
670.206	6.56616
670.396	15.32359
670.586	8.31258
670.777	10.21189
670.967	2.51111
671.157	7.70921
671.347	6.68162
671.538	14.15456
671.728	10.51884
671.918	14.43311
672.108	11.85394
672.299	8.78943
672.489	9.85136
672.679	7.96538
672.869	10.22689
673.059	14.79051
673.249	10.39506
673.44	5.52148
673.63	8.58505
673.82	12.03996
674.01	7.10092
674.2	11.40863
674.39	17.57609
674.58	11.55088
674.77	9.5909
674.96	9.14521
675.15	22.70935
675.34	13.88536
675.53	10.4035
675.72	8.44107
675.91	4.88812
676.099	15.46631
676.289	17.45297
676.479	11.78699
676.669	8.29178
676.859	11.42751
677.049	6.13793
677.238	9.40056
677.428	14.50126
677.618	11.41936
677.808	13.45311
677.997	10.4728
678.187	6.14499
678.377	9.36721
678.567	8.00065
678.756	7.87894
678.946	8.21339
679.136	5.3678
679.325	6.34725
679.515	6.19178
679.704	5.33734
679.894	10.77546
680.084	9.39418
680.273	12.25962
680.463	6.55341
680.652	6.30746
680.842	8.85147
681.031	11.35475
681.221	6.50596
681.41	10.2636
681.6	8.38456
681.789	11.67352
681.978	12.81672
682.168	10.76209
682.357	10.42821
682.547	11.59911
682.736	10.11782
682.925	14.01231
683.115	12.83191
683.304	12.45563
683.493	11.63295
683.682	12.21487
683.872	11.88645
684.061	14.80287
684.25	12.66664
684.439	17.67246
684.629	12.43299
684.818	22.51893
685.007	9.87227
685.196	9.24704
685.385	16.6896
685.574	12.36792
685.763	11.80123
685.952	11.64942
686.142	7.96613
686.331	16.3189
686.52	4.77812
686.709	16.85937
686.898	16.41984
687.087	13.13474
687.276	17.36714
687.465	15.7299
687.654	9.90481
687.842	17.06863
688.031	6.19924
688.22	16.2746
688.409	11.91508
688.598	11.13827
688.787	20.98835
688.976	12.37341
689.165	17.8584
689.353	9.59637
689.542	13.63192
689.731	15.17019
689.92	20.20817
690.108	14.69712
690.297	10.75831
690.486	12.41262
690.675	14.55892
690.863	18.96643
691.052	17.58178
691.241	13.50779
691.429	12.97978
691.618	17.97452
691.806	7.12509
691.995	10.96741
692.184	12.39736
692.372	10.37535
692.561	13.04569
692.749	12.83813
692.938	24.01703
693.126	15.67562
693.315	12.43824
693.503	15.46111
693.692	15.07478
693.88	16.54948
694.068	21.55884
694.257	12.31556
694.445	14.95126
694.634	4.85093
694.822	17.144
695.01	18.57391
695.199	20.42352
695.387	18.984
695.575	17.41457
695.763	13.11631
695.952	11.37666
696.14	6.9091
696.328	10.99321
696.516	14.15354
696.705	14.02409
696.893	13.74573
697.081	5.60676
697.269	16.09687
697.457	8.56914
697.645	7.70572
697.833	15.08518
698.021	9.12862
698.21	10.28131
698.398	10.63644
698.586	7.22104
698.774	7.34414
698.962	10.59365
699.15	8.00669
699.338	5.93676
699.526	12.57075
699.714	8.82116
699.901	8.36198
700.089	15.29789
700.277	9.42425
700.465	11.06066
700.653	15.40283
700.841	13.47452
701.029	8.81282
701.217	17.8071
701.404	13.39665
701.592	18.4606
701.78	22.54704
701.968	11.61825
702.155	12.57277
702.343	5.86923
702.531	19.71802
702.718	15.35232
702.906	13.00413
703.094	9.38318
703.281	19.16609
703.469	14.13447
703.657	19.11365
703.844	29.25346
704.032	22.16876
704.219	11.65465
704.407	15.66808
704.595	20.03575
704.782	15.85528
704.97	12.78453
705.157	12.05496
705.345	21.72056
705.532	28.40452
705.719	17.75874
705.907	22.10237
706.094	15.939
706.282	22.94606
706.469	14.12253
706.656	16.23204
706.844	13.47632
707.031	19.59041
707.218	15.62683
707.406	23.34232
707.593	18.81087
707.78	18.98478
707.968	13.94416
708.155	11.29445
708.342	17.28186
708.529	18.64952
708.716	15.9861
708.904	24.17514
709.091	18.98097
709.278	8.61117
709.465	24.61054
709.652	22.96526
709.839	22.14488
710.026	18.58569
710.213	7.98564
710.4	17.54747
710.587	21.76741
710.774	23.02809
710.961	21.23326
711.148	16.19474
711.335	21.96074
711.522	15.70912
711.709	19.19219
711.896	27.10986
712.083	21.21763
712.27	11.50592
712.457	17.33635
712.644	10.51372
712.831	28.55947
713.017	16.84875
713.204	19.80036
713.391	13.70625
713.578	23.34551
713.765	25.65752
713.951	20.76798
714.138	35.59949
714.325	20.98699
714.512	17.49603
714.698	14.17088
714.885	24.99839
715.072	19.55736
715.258	18.68891
715.445	15.1592
715.631	24.05468
715.818	4.98052
716.005	14.75597
716.191	20.48271
716.378	14.82648
716.564	22.8461
716.751	14.74556
716.937	15.43798
717.124	25.56812
717.31	14.68251
717.497	28.02449
717.683	16.36184
717.869	32.36682
718.056	16.64162
718.242	21.81853
718.429	18.6783
718.615	12.69317
718.801	18.84559
718.988	25.49316
719.174	21.9314
719.36	19.66201
719.547	25.8606
719.733	22.9496
719.919	21.43329
720.105	25.36427
720.291	19.03821
720.478	20.61505
720.664	18.00919
720.85	16.92826
721.036	38.13963
721.222	30.98427
721.408	20.61904
721.595	30.74342
721.781	32.28529
721.967	28.42303
722.153	30.10173
722.339	24.33123
722.525	24.19594
722.711	15.03171
722.897	12.45272
723.083	19.58327
723.269	24.63902
723.455	39.68094
723.641	42.8964
723.827	21.66885
724.012	24.33001
724.198	21.07438
724.384	31.14549
724.57	23.27476
724.756	12.0042
724.942	9.38232
725.127	29.59485
725.313	30.24372
725.499	30.24277
725.685	34.93747
725.87	22.9249
726.056	15.38351
726.242	30.37586
726.428	13.10544
726.613	28.15843
726.799	19.41003
726.985	14.76659
727.17	11.48041
727.356	35.49869
727.541	17.17721
727.727	20.97414
727.913	27.67439
728.098	18.6303
728.284	26.09314
728.469	13.75194
728.655	16.88167
728.84	29.11694
729.026	25.5339
729.211	29.39024
729.397	24.78434
729.582	27.2675
729.767	20.86982
729.953	23.89942
730.138	28.58269
730.323	7.43129
730.509	15.19598
730.694	31.87572
730.879	26.27802
731.065	23.03751
731.25	38.06531
731.435	26.00495
731.621	12.31426
731.806	18.99069
731.991	25.22359
732.176	11.28429
732.361	32.14721
732.547	26.50021
732.732	9.9678
732.917	38.76761
733.102	14.61182
733.287	16.55336
733.472	23.1945
733.657	22.42628
733.842	12.13022
734.027	19.91343
734.212	19.98784
734.397	16.69059
734.582	22.00287
734.767	27.99666
734.952	33.74801
735.137	5.61548
735.322	34.20668
735.507	25.20178
735.692	25.80243
735.877	37.51418
736.062	38.68213
736.247	26.48947
736.431	22.88973
736.616	32.66122
736.801	25.40344
736.986	24.91955
737.171	19.38943
737.355	14.16422
737.54	33.38323
737.725	24.24204
737.909	45.33471
738.094	20.96461
738.279	30.52712
738.463	22.90966
738.648	30.52991
738.833	26.95179
739.017	41.74337
739.202	23.35675
739.386	24.49136
739.571	17.59503
739.756	32.29707
739.94	25.9194
740.125	32.17351
740.309	20.53675
740.494	28.75928
740.678	27.05376
740.863	29.13251
741.047	27.97651
741.231	35.11273
741.416	20.63778
741.6	37.64194
741.785	18.52001
741.969	32.10577
742.153	38.31169
742.338	7.24024
742.522	24.40117
742.706	33.3254
742.89	15.03826
743.075	29.64298
743.259	38.49524
743.443	36.28682
743.627	36.30631
743.812	46.41782
743.996	13.5327
744.18	24.32948
744.364	23.10509
744.548	48.80198
744.732	25.3755
744.916	30.83604
745.1	32.124
745.285	24.54295
745.469	29.49196
745.653	43.70979
745.837	15.48909
746.021	46.76735
746.205	36.97206
746.389	30.98236
746.573	25.18872
746.757	40.92673
746.94	25.06082
747.124	37.52806
747.308	18.52049
747.492	37.74985
747.676	23.35062
747.86	49.42168
748.044	24.04915
748.227	12.97022
748.411	64.32258
748.595	32.13928
748.779	19.30232
748.963	31.15346
749.146	29.10389
749.33	20.67045
749.514	17.96368
749.697	37.706
749.881	23.29017
750.065	19.69119
750.248	25.57094
750.432	51.61967
750.616	31.39494
750.799	13.75268
750.983	49.09678
751.166	55.36269
751.35	14.04344
751.533	36.04204
751.717	41.60604
751.9	44.62849
752.084	23.9029
752.267	19.02487
752.451	21.1702
752.634	27.73763
752.818	32.08229
753.001	38.18347
753.184	39.38171
753.368	32.82179
753.551	-0.89863
753.734	22.42298
753.918	52.39938
754.101	22.85612
754.284	35.42513
754.467	24.24703
754.651	23.98865
754.834	23.45251
755.017	40.31229
755.2	39.92773
755.384	16.1449
755.567	37.0652
755.75	39.09035
755.933	24.66075
756.116	29.95775
756.299	25.21344
756.482	18.62654
756.665	37.83376
756.848	32.41898
757.032	33.97756
757.215	17.03985
757.398	23.61303
757.581	18.95381
757.764	56.54265
757.947	29.50108
758.129	41.99128
758.312	-4.03183
758.495	28.53652
758.678	27.42084
758.861	27.83144
759.044	52.07649
759.227	23.04875
759.41	21.95981
759.592	36.32371
759.775	28.68888
759.958	38.55457
760.141	15.8049
760.324	52.72336
760.506	46.49842
760.689	37.63344
760.872	55.84562
761.054	34.12331
761.237	22.99463
761.42	35.37865
761.602	38.50191
761.785	36.48245
761.968	40.71688
762.15	48.83844
762.333	26.55542
762.515	31.9727
762.698	24.22052
762.88	35.13175
763.063	30.2143
763.245	36.93853
763.428	20.92043
763.61	22.60624
763.793	17.65733
763.975	29.49978
764.158	22.9571
764.34	21.43843
764.522	17.51114
764.705	23.18917
764.887	41.51611
765.069	13.62964
765.252	35.21827
765.434	36.56357
765.616	28.3136
765.799	21.10933
765.981	37.26193
766.163	19.23712
766.345	37.64053
766.528	23.18194
766.71	7.30905
766.892	29.8733
767.074	42.68436
767.256	27.84903
767.438	47.5489
767.62	35.11178
767.802	53.84479
767.985	35.03365
768.167	51.62917
768.349	28.81791
768.531	36.0215
768.713	33.71287
768.895	43.36675
769.077	38.06479
769.259	60.70883
769.441	95.36086
769.623	46.75715
769.804	54.03055
769.986	52.3728
770.168	68.6345
770.35	74.81038
770.532	60.28509
770.714	61.56888
770.896	66.42241
771.077	24.92811
771.259	67.94131
771.441	53.00115
771.623	72.82117
771.804	98.72996
771.986	17.8517
772.168	41.10921
772.35	68.83944
772.531	93.82562
772.713	56.67975
772.894	71.43098
773.076	52.49452
773.258	44.11046
773.439	76.80272
773.621	78.30782
773.802	29.53772
773.984	51.19541
774.166	56.72968
774.347	87.79301
774.529	74.71632
774.71	17.38902
774.891	44.46269
775.073	46.15261
775.254	84.81241
775.436	41.39055
775.617	89.1357
775.799	42.96352
775.98	85.24996
776.161	90.85274
776.343	84.05058
776.524	55.18026
776.705	47.99636
776.886	25.03291
777.068	55.59353
777.249	111.88027
777.43	90.55576
777.611	33.6235
777.793	53.19017
777.974	85.22354
778.155	48.18905
778.336	41.73529
778.517	94.11656
778.698	41.83445
778.879	17.76388
779.061	4.79955
779.242	65.02587
779.423	59.89727
779.604	41.0793
779.785	52.15747
779.966	62.03781
780.147	74.49996
780.328	72.44637
780.509	101.39211
780.69	70.03193
780.871	46.846
781.051	25.19771
781.232	57.07881
781.413	64.08752
781.594	43.36502
781.775	46.81869
781.956	44.06304
782.137	20.73258
782.317	43.47125
782.498	62.1669
782.679	54.70336
782.86	63.34763
783.04	37.67184
783.221	60.86189
783.402	101.56387
783.583	55.1652
783.763	76.67946
783.944	43.77816
784.124	21.67369
784.305	93.46424
784.486	70.76429
784.666	51.66913
784.847	19.48302
785.027	114.27826
785.208	38.57024
785.388	40.4064
785.569	37.31833
785.749	45.51242
785.93	43.11523
786.11	29.79196
786.291	56.6556
786.471	59.25692
786.652	70.15813
786.832	48.10813
787.012	64.94494
787.193	31.54207
787.373	54.00841
787.553	46.91271
787.734	55.77951
787.914	43.71234
788.094	63.88044
788.275	57.32259
788.455	42.46883
788.635	30.9667
788.815	55.14964
788.995	31.12551
789.176	31.03639
789.356	37.90876
789.536	46.4456
789.716	57.59439
789.896	39.14112
790.076	43.2599
790.256	59.25934
790.436	12.22323
790.616	29.86721
790.796	61.46781
790.976	43.96394
791.156	44.87852
791.336	65.91436
791.516	61.70184
791.696	48.53935
791.876	21.71896
792.056	53.83344
792.236	79.42743
792.416	73.1583
792.596	67.23639
792.776	61.59585
792.956	67.24179
793.135	86.75972
793.315	28.46209
793.495	78.87641
793.675	68.20752
793.854	74.52576
794.034	74.94998
794.214	29.06678
794.394	70.15273
794.573	78.61762
794.753	53.52614
794.933	37.53763
795.112	60.3727
795.292	68.7145
795.472	91.51608
795.651	34.15923
795.831	56.93651
796.01	44.49732
796.19	45.11029
796.369	48.22988
796.549	62.59126
796.728	47.84943
796.908	31.52026
797.087	31.17962
797.267	51.40217
797.446	29.74681
797.626	57.56745
797.805	57.68917
797.984	40.04403
798.164	66.10662
798.343	35.95839
798.522	59.29323
798.702	52.94575
798.881	27.69133
799.06	48.61057
799.239	17.45961
799.419	30.45068
799.598	85.98477
799.777	66.43382
799.956	68.8229
800.136	49.19253
800.315	39.4565
800.494	58.84462
800.673	69.69106
800.852	70.3171
801.031	78.10458
801.21	64.54677
801.389	38.10618
801.568	58.14623
801.747	86.08541
801.926	49.98029
802.105	90.86493
802.284	51.23405
802.463	86.3198
802.642	60.74213
802.821	63.48425
803	80.46796
803.179	69.25006
803.358	77.50942
803.537	39.15546
803.716	67.73622
803.895	43.47767
804.073	50.81935
804.252	41.56542
804.431	64.88419
804.61	59.6047
804.789	83.90139
804.967	47.778
805.146	45.75977
805.325	103.84093
805.503	66.06782
805.682	26.54116
805.861	120.24535
806.039	84.78673
806.218	39.10872
806.397	66.64771
806.575	59.26523
806.754	60.42458
806.932	44.07842
807.111	89.4413
807.289	78.68336
807.468	65.65356
807.646	75.02618
807.825	63.15588
808.003	66.56715
808.182	76.86113
808.36	63.27287
808.539	37.97986
808.717	90.11204
808.895	39.56379
809.074	59.2938
809.252	46.86141
809.43	84.28469
809.609	86.8611
809.787	97.28811
809.965	50.0541
810.144	55.873
810.322	44.66042
810.5	69.58892
810.678	58.68988
810.856	101.05523
811.035	86.10401
811.213	80.1618
811.391	75.49112
811.569	56.74252
811.747	134.6475
811.925	88.52793
812.103	43.39947
812.281	44.79217
812.459	110.43058
812.637	105.62899
812.816	89.83131
812.994	111.59105
813.171	89.2049
813.349	83.89547
813.527	99.05523
813.705	98.17067
813.883	111.64917
814.061	95.05759
814.239	116.3754
814.417	124.23857
814.595	85.84556
814.773	69.968
814.95	71.23118
815.128	72.37185
815.306	62.71304
815.484	62.24995
815.662	51.08482
815.839	46.8609
816.017	49.95657
816.195	88.63725
816.372	62.63922
816.55	94.31728
816.728	105.42755
816.905	58.68591
817.083	100.85152
817.261	64.77972
817.438	144.33396
817.616	113.64593
817.793	46.2011
817.971	81.12256
818.148	77.32012
818.326	114.22271
818.503	71.5261
818.681	97.30394
818.858	51.29462
819.036	68.22365
819.213	65.05953
819.391	49.49226
819.568	40.78539
819.745	40.04958
819.923	74.65744
820.1	47.84376
820.277	45.17845
820.455	50.64526
820.632	50.06631
820.809	58.06264
820.986	30.17405
821.164	24.38592
821.341	19.74241
821.518	31.90154
821.695	21.78512
821.872	18.41137
822.05	15.61683
822.227	10.5781
822.404	11.76805
822.581	15.38807
822.758	11.2352
822.935	12.1947
823.112	14.66986
823.289	10.71185
823.466	15.09106
823.643	13.42538
823.82	18.22476
823.997	15.45907
824.174	19.67268
824.351	27.67691
824.528	26.20763
824.705	22.89354
824.882	24.99721
825.059	35.03089
825.236	22.04792
825.412	22.45075
825.589	31.06848
825.766	50.05347
825.943	27.27896
826.12	33.90546
826.296	18.895
826.473	30.44178
826.65	29.87279
826.827	38.08643
827.003	23.44987
827.18	26.52505
827.357	30.5292
827.533	24.11977
827.71	10.61327
827.887	20.9795
828.063	27.66023
828.24	21.79387
828.416	32.77842
828.593	25.89574
828.769	40.25946
828.946	42.41079
829.122	43.5935
829.299	46.22542
829.475	16.98311
829.652	43.48114
829.828	71.66585
830.005	44.10692
830.181	63.67326
830.357	38.75185
830.534	64.8854
830.71	55.97507
830.886	74.98556
831.063	60.75803
831.239	88.27464
831.415	38.1743
831.592	97.6485
831.768	50.00846
831.944	41.38363
832.12	97.23519
832.296	91.86361
832.473	73.27938
832.649	47.14316
832.825	68.47643
833.001	37.71506
833.177	55.26448
833.353	51.84796
833.529	25.10502
833.705	41.43099
833.881	27.59885
834.058	25.85912
834.234	29.32604
834.41	29.15051
834.586	21.46708
834.761	27.25367
834.937	31.8376
835.113	31.65576
835.289	27.99465
835.465	34.42342
835.641	30.1717
835.817	33.64075
835.993	69.0239
836.169	28.70034
836.344	48.36611
836.52	57.07677
836.696	69.08399
836.872	34.85542
837.048	141.65708
837.223	44.96015
837.399	125.70851
837.575	93.12735
837.75	85.62495
837.926	126.7407
838.102	194.94532
838.277	152.57901
838.453	212.22485
838.628	214.13995
838.804	67.73763
838.98	186.58159
839.155	90.00093
839.331	122.55065
839.506	86.10289
839.682	79.61194
839.857	102.01541
840.033	125.57361
840.208	53.73692
840.384	31.23605
840.559	58.79357
840.734	95.49429
840.91	138.29856
841.085	88.09015
841.26	85.33838
841.436	81.69164
841.611	62.9544
841.786	106.30844
841.962	162.64148
842.137	118.65573
842.312	39.15268
842.487	86.21249
842.663	72.83015
842.838	86.02066
843.013	298.69887
843.188	190.64209
843.363	131.638
843.538	304.8275
843.714	338.26222
843.889	311.47659
844.064	291.05472
844.239	211.58835
844.414	472.72254
844.589	252.30572
844.764	366.24494
844.939	366.13146
845.114	402.63591
845.289	403.41379
845.464	489.14049
845.639	355.55468
845.814	187.61767
845.989	324.40762
846.163	236.75212
846.338	322.70211
846.513	372.5961
846.688	249.60247
846.863	322.75132
847.038	238.02836
847.212	299.80839
847.387	334.09689
847.562	264.82416
847.737	447.77809
847.911	171.0369
848.086	165.43449
848.261	421.08637
848.435	264.21307
848.61	363.32341
848.785	188.66116
848.959	403.76876
849.134	448.17913
849.308	639.71859
849.483	315.57524
849.658	507.91075
849.832	269.18099
850.007	224.88384
850.181	656.22612
850.356	266.44433
850.53	757.67784
850.705	340.2336
850.879	131.69135
851.053	260.90482
851.228	277.97867
851.402	492.97704
851.577	489.11914
851.751	558.61358
851.925	340.16441
852.099	100.98384
852.274	207.47874
852.448	297.4766
852.622	469.52089
852.797	320.68129
852.971	336.00299
853.145	393.63144
853.319	724.25422
853.493	655.23593
853.668	526.36306
853.842	741.02771
854.016	477.53798
854.19	642.67012
854.364	334.53271
854.538	349.31237
854.712	692.76458
854.886	401.04859
855.06	304.17544
855.234	93.7454
855.408	633.24898
855.582	393.64834
855.756	600.77952
855.93	521.46581
856.104	671.78876
856.278	526.31796
856.452	355.29804
856.626	409.36868
856.8	908.5074
856.973	372.71839
857.147	459.45557
857.321	468.18783
857.495	501.4367
857.669	354.83522
857.842	442.56709
858.016	558.62481
858.19	218.39036
858.364	745.46958
858.537	407.67026
858.711	522.29067
858.885	388.33806
859.058	225.18533
859.232	137.35369
859.405	155.73124
859.579	482.58727
859.753	532.52318
859.926	217.9575
860.1	169.84384
860.273	363.98491
860.447	472.52812
860.62	373.49359
860.794	567.57518
860.967	347.84971
861.141	483.59779
861.314	794.09098
861.487	491.06137
861.661	472.17796
861.834	549.60881
862.008	664.66287
862.181	434.09582
862.354	512.2243
862.528	474.72537
862.701	319.47623
862.874	180.22144
863.047	270.74719
863.221	265.57354
863.394	157.22713
863.567	411.4005
863.74	106.19234
863.913	466.14719
864.087	501.35722
864.26	444.43511
864.433	352.97678
864.606	600.10807
864.779	363.48148
864.952	184.24735
865.125	412.94163
865.298	294.03788
865.471	328.5685
865.644	763.80751
865.817	482.13591
865.99	470.34845
866.163	464.58747
866.336	246.56556
866.509	292.26234
866.682	564.41064
866.855	727.803
867.028	192.97295
867.2	382.28061
867.373	72.84415
867.546	355.96952
867.719	656.7297
867.892	427.42474
868.064	280.64399
868.237	314.02859
868.41	352.28706
868.583	154.5941
868.755	240.30326
868.928	430.51192
869.101	810.83398
869.273	546.86974
869.446	469.76907
869.619	569.35675
869.791	349.6709
869.964	486.00618
870.136	830.05512
870.309	341.42906
870.481	405.33052
870.654	201.73975
870.826	309.02189
870.999	198.00762
871.171	415.23702
871.344	242.59413
871.516	279.49373
871.689	251.32717
871.861	306.84867
872.033	269.60102
872.206	276.77314
872.378	325.0297
872.55	324.24911
872.723	224.65037
872.895	340.8323
873.067	440.63416
873.24	346.72984
873.412	329.9891
873.584	345.98271
873.756	319.63011
873.928	467.3412
874.101	329.04155
874.273	394.05932
874.445	133.4429
874.617	225.93993
874.789	292.63756
874.961	322.09548
875.133	359.0479
875.305	354.17403
875.477	282.54129
875.649	161.27541
875.821	177.33302
875.993	603.89049
876.165	319.17783
876.337	379.10455
876.509	294.84809
876.681	360.2408
876.853	343.49024
877.025	338.62936
877.197	217.21684
877.369	154.13599
877.541	332.01279
877.712	75.04102
877.884	170.02223
878.056	335.03074
878.228	175.69505
878.4	388.1419
878.571	157.25009
878.743	104.7115
878.915	270.75399
879.086	122.87872
879.258	166.54847
879.43	166.53396
879.601	132.37638
879.773	129.39419
879.945	25.64008
880.116	46.0125
880.288	25.27166
880.459	28.62831
880.631	19.62372
880.802	25.91889
880.974	23.38102
881.145	14.2212
881.317	21.7528
881.488	15.38832
881.66	16.83992
881.831	16.02327
882.002	22.51224
882.174	15.28053
882.345	20.29579
882.517	7.80098
882.688	27.61621
882.859	19.43905
883.03	37.46144
883.202	35.63779
883.373	26.97532
883.544	26.4393
883.715	52.4409
883.887	44.94615
884.058	30.23478
884.229	54.29834
884.4	53.10575
884.571	68.71927
884.742	51.8966
884.914	62.24049
885.085	93.14704
885.256	132.69426
885.427	112.9007
885.598	144.87162
885.769	142.13378
885.94	138.00582
886.111	76.05299
886.282	168.98197
886.453	147.09538
886.624	99.04565
886.795	203.68524
886.966	159.50431
887.136	202.20674
887.307	142.19174
887.478	299.56022
887.649	258.93315
887.82	243.88094
887.991	205.94274
888.161	338.33985
888.332	325.27452
888.503	140.63783
888.674	373.0809
888.844	519.75863
889.015	307.95692
889.186	198.11535
889.356	483.52173
889.527	185.77554
889.698	643.56462
889.868	245.48238
890.039	392.99669
890.209	273.35638
890.38	391.21094
890.551	356.70857
890.721	411.89388
890.892	446.42502
891.062	452.86627
891.233	501.1634
891.403	499.49972
891.574	320.53752
891.744	223.03678
891.914	297.78809
892.085	349.92323
892.255	87.8313
892.425	434.17096
892.596	320.57713
892.766	378.76937
892.936	443.45359
893.107	379.00857
893.277	145.38407
893.447	182.84467
893.618	87.65288
893.788	187.4758
893.958	126.51768
894.128	98.50083
894.298	115.00384
894.468	149.88591
894.639	62.7013
894.809	29.89662
894.979	66.5403
895.149	80.31281
895.319	64.60446
895.489	93.45364
895.659	137.31549
895.829	78.84508
895.999	77.24961
896.169	72.83205
896.339	89.28817
896.509	174.85421
896.679	187.81645
896.849	196.89556
897.019	272.03925
897.189	232.90714
897.358	197.5768
897.528	330.00969
897.698	212.68047
897.868	301.57426
898.038	628.22316
898.208	621.46817
898.377	192.51491
898.547	978.09419
898.717	1427.78554
898.886	355.10147
899.056	614.43878
899.226	1452.40769
899.395	753.23831
899.565	1195.35264
899.735	859.39387
899.904	944.65033
900.074	1048.46348
900.244	291.26387
900.413	1259.55688
900.583	396.40042
900.752	1308.72102
900.922	984.38518
901.091	163.59908
901.261	1735.12928
901.43	517.02847
901.599	2373.84713
901.769	1424.59235
901.938	1124.75356
902.108	1555.26316
902.277	792.47238
902.446	307.60266
902.616	357.42063
902.785	566.49773
902.954	688.67135
903.124	498.66316
903.293	286.1464
903.462	123.2186
903.631	195.2252
903.801	141.37249
903.97	65.48395
904.139	111.3191
904.308	81.50006
904.477	64.7556
904.646	35.63893
904.816	54.99192
904.985	89.45549
905.154	138.9877
