Data from WindowProjectSample_Transmission__78__00078__003548421275852953.txt Node

Date: Mon May 05 18:48:56 EDT 2025
User: jessi
Spectrometer: SR400872
Trigger mode: 0
Integration Time (sec): 5.000010E-1
Scans to average: 20
Electric dark correction enabled: true
Nonlinearity correction enabled: true
Boxcar width: 0
XAxis mode: Wavelengths
Number of Pixels in Spectrum: 3648
>>>>>Begin Spectral Data<<<<<
184.909	21747.80154
185.132	-5451.99133
185.355	-3157.80147
185.578	-18650.3223
185.801	1450.36
186.024	11006.77844
186.247	-1763.13846
186.47	1229.36404
186.693	394.79379
186.916	390.1571
187.139	-3693.77326
187.362	3342.38278
187.585	5140.36915
187.808	3520.0689
188.031	7.61679
188.254	-51885.09278
188.476	-571.83342
188.699	6332.34332
188.922	511.30839
189.145	-15614.43127
189.368	-694.88615
189.591	-1436.86315
189.813	2967.30173
190.036	-49605.35496
190.259	-854.42221
190.482	-4296.25159
190.705	7268.21419
190.927	-2469.53018
191.15	13542.43981
191.373	3423.71064
191.595	-8678.69856
191.818	-3987.6818
192.041	-6482.5295
192.263	-3274.54323
192.486	-960.46388
192.709	-3915.71938
192.931	8082.38584
193.154	-29792.15149
193.377	-2855.1434
193.599	-2698.5784
193.822	-9738.09391
194.044	-1941.08188
194.267	1132.70957
194.489	297.49082
194.712	-43027.18463
194.934	-32939.94856
195.157	1268.99819
195.379	1396.12986
195.602	-6835.35898
195.824	-1238.2255
196.047	-8860.80946
196.269	2755.58807
196.492	-6378.51999
196.714	28250.58176
196.936	-8604.75956
197.159	-1164.55674
197.381	1218.51764
197.604	367.51768
197.826	11994.96318
198.048	-11127.32588
198.271	-2951.12431
198.493	7517.79169
198.715	2347.68876
198.938	-403.23687
199.16	6568.66398
199.382	-102168.52029
199.604	2855.47867
199.827	-1079.6979
200.049	-3078.23818
200.271	13786.62279
200.493	1291.76641
200.715	-37627.29939
200.938	-6231.75936
201.16	-4303.21748
201.382	20090.73617
201.604	2339.4093
201.826	2272.61014
202.048	-2044.72292
202.27	-1869.65173
202.492	-37252.18595
202.715	2891.5394
202.937	-4574.33685
203.159	-6519.24344
203.381	1496.21104
203.603	6682.18868
203.825	6952.5888
204.047	2294.99209
204.269	-2859.57166
204.491	2350.11608
204.713	5877.55549
204.935	-480242.62097
205.156	1172.60973
205.378	-2938.34752
205.6	1651.36799
205.822	159744.64134
206.044	-1114.90577
206.266	1591.32137
206.488	4524.19864
206.71	-5353.62131
206.932	1104.10873
207.153	12387.51023
207.375	-6884.10356
207.597	-38699.11909
207.819	-2973.70124
208.041	2466.11955
208.262	462.90341
208.484	626.16319
208.706	-769.55248
208.927	-834.13455
209.149	582.42953
209.371	-2853.65574
209.593	-286.01098
209.814	-906.9865
210.036	554.89299
210.258	-700.11698
210.479	1720.7196
210.701	1623.52329
210.922	3393.2268
211.144	-4119.93427
211.366	2087.17056
211.587	7773.66732
211.809	-8470.62694
212.03	2453.39288
212.252	423.70537
212.473	2165.29535
212.695	-5290.81875
212.916	2843.42814
213.138	-691.17402
213.359	3899.17462
213.581	5295.16511
213.802	-683.50538
214.024	1166.47181
214.245	2163.53644
214.466	2888.96325
214.688	-3161.17151
214.909	-1154.76687
215.131	-1817.84398
215.352	-3399.72253
215.573	15013.14272
215.795	5292.37342
216.016	5395.76532
216.237	831.08463
216.459	3629.01852
216.68	1917.23381
216.901	5180.66582
217.122	-3257.03982
217.344	-11577.25182
217.565	3410.05937
217.786	9405.45489
218.007	16583.25743
218.228	-759.45147
218.45	6021.26387
218.671	785.41958
218.892	38760.08332
219.113	1478.64144
219.334	-307.49065
219.555	10012.03889
219.776	3084.74511
219.997	22765.74801
220.219	2833.09893
220.44	-12282.45122
220.661	472.21169
220.882	1523.59123
221.103	-1079.52211
221.324	2242.43639
221.545	2309.35095
221.766	-9193.38476
221.987	911.25934
222.208	1668.88333
222.429	4244.83432
222.65	185.67585
222.87	19222.91362
223.091	781.06004
223.312	572.95609
223.533	1463.79675
223.754	1499.2306
223.975	1334.40587
224.196	2129.64356
224.417	1428.91322
224.637	589.2079
224.858	60.07281
225.079	1118.48
225.3	673.4364
225.521	3775.01466
225.741	498.01802
225.962	499.32407
226.183	157.85234
226.404	678.41615
226.624	416.6821
226.845	677.09082
227.066	433.62469
227.286	262.3795
227.507	135.84297
227.728	116.73301
227.948	232.3515
228.169	74.37378
228.389	84.19145
228.61	47.02666
228.831	67.06551
229.051	1.87556
229.272	38.74382
229.492	57.58801
229.713	11.7652
229.933	38.00561
230.154	32.30028
230.374	55.29078
230.595	39.61523
230.815	22.9986
231.036	38.74209
231.256	-9.79459
231.477	70.4837
231.697	39.28053
231.917	39.57915
232.138	56.41084
232.358	106.07391
232.579	108.26513
232.799	18.78063
233.019	96.91526
233.24	117.06353
233.46	37.9711
233.68	66.21213
233.901	46.50775
234.121	26.42269
234.341	13.53967
234.561	-3.91315
234.782	19.79456
235.002	68.97296
235.222	-4.24764
235.442	66.24124
235.662	34.43902
235.883	64.67461
236.103	51.01957
236.323	36.57526
236.543	29.68269
236.763	37.17443
236.983	44.2321
237.203	42.57627
237.423	64.21942
237.643	91.01143
237.864	79.56734
238.084	18.20694
238.304	26.1922
238.524	45.30729
238.744	38.68671
238.964	77.32922
239.184	63.62606
239.404	64.70764
239.624	33.13363
239.843	60.04504
240.063	36.99136
240.283	22.18823
240.503	26.3979
240.723	25.87244
240.943	13.8573
241.163	19.51002
241.383	14.51323
241.603	6.49397
241.822	9.39883
242.042	6.08044
242.262	8.33734
242.482	9.19507
242.702	10.8177
242.921	2.46845
243.141	6.79054
243.361	6.40715
243.581	9.26334
243.8	7.6952
244.02	5.02575
244.24	9.72228
244.459	9.36394
244.679	18.19278
244.899	11.91705
245.118	13.43879
245.338	12.10964
245.558	14.21023
245.777	8.30569
245.997	10.65583
246.216	10.32796
246.436	6.24811
246.655	4.94995
246.875	3.32983
247.094	6.21474
247.314	2.02364
247.533	3.72582
247.753	4.27676
247.972	3.54745
248.192	1.20887
248.411	1.93547
248.631	3.52161
248.85	4.61289
249.07	3.71046
249.289	6.12499
249.508	5.11128
249.728	7.19503
249.947	7.31001
250.166	8.78463
250.386	4.24085
250.605	6.86892
250.824	11.23489
251.044	7.87626
251.263	28.78161
251.482	15.11044
251.701	11.1367
251.921	-0.62532
252.14	3.30893
252.359	3.76243
252.578	10.01872
252.798	3.14282
253.017	9.22866
253.236	4.22369
253.455	5.92776
253.674	10.31307
253.893	5.30592
254.112	7.84975
254.331	11.80528
254.551	8.60079
254.77	3.59761
254.989	12.70278
255.208	10.20307
255.427	15.37651
255.646	11.01702
255.865	22.53162
256.084	9.37978
256.303	10.61307
256.522	14.08203
256.741	3.51122
256.96	2.72562
257.179	8.78882
257.397	10.78351
257.616	5.7658
257.835	6.57052
258.054	15.13993
258.273	10.71896
258.492	11.14204
258.711	6.46653
258.93	3.17009
259.148	4.56201
259.367	4.56334
259.586	5.76788
259.805	2.44727
260.023	5.34436
260.242	4.13997
260.461	2.92533
260.68	1.31631
260.898	4.50891
261.117	1.24554
261.336	0.91115
261.554	3.60635
261.773	3.59709
261.992	0.70666
262.21	3.24299
262.429	3.61545
262.648	7.51468
262.866	8.42661
263.085	5.58518
263.303	4.80928
263.522	8.76312
263.74	9.06374
263.959	15.24614
264.178	7.53705
264.396	6.75647
264.615	4.2124
264.833	10.98006
265.051	9.08815
265.27	11.11233
265.488	10.93063
265.707	6.10575
265.925	10.93504
266.144	4.89052
266.362	5.64267
266.58	5.65318
266.799	4.92247
267.017	5.96793
267.235	5.28614
267.454	3.12065
267.672	1.88169
267.89	3.92828
268.109	4.62315
268.327	4.41548
268.545	0.81866
268.763	4.27422
268.982	1.68549
269.2	4.34379
269.418	3.1514
269.636	2.04151
269.854	4.42283
270.073	3.24931
270.291	1.81556
270.509	1.92263
270.727	4.37005
270.945	7.23245
271.163	7.33321
271.381	1.40502
271.599	3.03235
271.817	5.60801
272.036	1.66302
272.254	3.09602
272.472	2.27402
272.69	2.44498
272.908	2.40931
273.126	4.49175
273.344	5.32081
273.562	1.84516
273.779	2.63139
273.997	3.97412
274.215	4.10134
274.433	2.80206
274.651	4.55613
274.869	4.8291
275.087	2.7447
275.305	3.92199
275.523	2.47857
275.74	2.93688
275.958	5.45236
276.176	8.28682
276.394	2.58479
276.612	3.2399
276.829	3.13872
277.047	2.68016
277.265	3.10956
277.483	3.46758
277.7	4.24391
277.918	3.41438
278.136	6.41475
278.353	3.0599
278.571	2.05841
278.789	4.22567
279.006	1.07791
279.224	2.94113
279.442	4.98586
279.659	3.69336
279.877	2.26671
280.094	5.69612
280.312	0.88668
280.529	3.36041
280.747	1.0144
280.964	2.69857
281.182	6.20532
281.399	2.85845
281.617	3.94476
281.834	2.5481
282.052	1.82387
282.269	3.30187
282.487	2.52048
282.704	2.21664
282.921	2.2633
283.139	3.28307
283.356	4.11689
283.574	3.77885
283.791	1.80435
284.008	5.68204
284.226	2.99195
284.443	3.21893
284.66	4.38464
284.877	3.51397
285.095	2.11222
285.312	1.61945
285.529	0.89986
285.746	0.85207
285.964	2.05389
286.181	1.36728
286.398	1.92254
286.615	2.74033
286.832	2.5425
287.05	0.5259
287.267	1.81465
287.484	1.90389
287.701	2.55763
287.918	2.52968
288.135	2.50923
288.352	1.26398
288.569	1.47858
288.786	2.45753
289.003	1.99976
289.22	3.09833
289.437	1.49516
289.654	2.98242
289.871	3.05871
290.088	3.00204
290.305	2.3605
290.522	1.7472
290.739	2.11073
290.956	3.17174
291.173	3.58502
291.39	3.46649
291.607	2.46375
291.824	1.63999
292.04	1.36942
292.257	2.98248
292.474	3.26882
292.691	2.08365
292.908	0.98404
293.125	1.64747
293.341	1.03284
293.558	4.99684
293.775	1.91681
293.992	1.93045
294.208	0.80186
294.425	1.28829
294.642	1.84632
294.858	2.88273
295.075	0.63533
295.292	1.97217
295.508	2.3258
295.725	4.09
295.942	1.65023
296.158	1.15954
296.375	2.04806
296.591	1.52503
296.808	1.68572
297.024	1.90006
297.241	2.30007
297.458	2.4719
297.674	0.15408
297.891	1.84468
298.107	1.45354
298.323	1.04722
298.54	3.08516
298.756	1.22932
298.973	0.59278
299.189	3.15999
299.406	1.17551
299.622	2.89168
299.838	2.77347
300.055	2.72541
300.271	0.46555
300.487	0.9752
300.704	1.27029
300.92	0.59663
301.136	4.18411
301.353	2.59683
301.569	1.92364
301.785	2.12363
302.001	2.62492
302.218	2.22454
302.434	2.24299
302.65	0.67295
302.866	1.53156
303.083	3.8908
303.299	3.76734
303.515	1.97208
303.731	2.12344
303.947	0.51605
304.163	1.18841
304.379	2.04322
304.595	2.369
304.812	1.25898
305.028	1.29388
305.244	1.72259
305.46	2.77679
305.676	2.62784
305.892	3.10827
306.108	2.36486
306.324	1.47377
306.54	3.60255
306.756	2.54622
306.972	2.45205
307.187	1.68825
307.403	3.4525
307.619	1.51762
307.835	3.04742
308.051	3.47125
308.267	1.01957
308.483	2.88444
308.699	2.46925
308.914	1.97998
309.13	1.77922
309.346	0.51508
309.562	0.95138
309.778	0.61333
309.993	2.44417
310.209	1.89646
310.425	0.96762
310.641	1.63761
310.856	0.93206
311.072	0.86941
311.288	1.73223
311.503	1.9386
311.719	0.34117
311.935	0.20472
312.15	2.20379
312.366	1.74777
312.581	2.25205
312.797	1.87712
313.013	2.54888
313.228	1.2811
313.444	1.81871
313.659	1.28389
313.875	2.26832
314.09	1.75769
314.306	3.0887
314.521	2.67291
314.737	2.49569
314.952	1.8408
315.168	1.74817
315.383	2.23515
315.599	1.84256
315.814	1.43427
316.029	2.55336
316.245	0.70284
316.46	0.46061
316.675	3.17
316.891	3.55731
317.106	4.54776
317.321	2.18612
317.537	2.47384
317.752	2.57535
317.967	2.8472
318.183	1.06865
318.398	1.49102
318.613	2.59023
318.828	3.20408
319.043	2.72712
319.259	1.7368
319.474	2.27577
319.689	3.05288
319.904	0.41337
320.119	2.62095
320.334	2.28185
320.549	1.55373
320.765	2.93786
320.98	2.06117
321.195	2.63251
321.41	1.86394
321.625	2.70052
321.84	3.70039
322.055	3.78741
322.27	1.47863
322.485	1.12691
322.7	2.1937
322.915	2.89849
323.13	1.05955
323.345	3.23586
323.56	2.87245
323.775	2.46277
323.989	2.29703
324.204	2.29475
324.419	2.88221
324.634	0.83863
324.849	1.80864
325.064	4.97421
325.279	2.88514
325.493	2.40671
325.708	2.87892
325.923	1.32264
326.138	1.39201
326.352	3.48109
326.567	3.06202
326.782	1.5792
326.997	1.34561
327.211	2.51138
327.426	2.38579
327.641	1.56061
327.855	0.57618
328.07	2.17568
328.285	3.55231
328.499	1.48146
328.714	2.21824
328.928	2.64227
329.143	1.93825
329.358	2.76337
329.572	3.05339
329.787	3.17915
330.001	4.30057
330.216	0.87223
330.43	3.6551
330.645	3.63335
330.859	2.75775
331.074	1.35123
331.288	2.22557
331.503	3.16217
331.717	1.06207
331.931	2.03329
332.146	2.00398
332.36	3.65532
332.575	2.39103
332.789	2.29071
333.003	2.05771
333.218	2.50844
333.432	1.43245
333.646	2.74014
333.86	3.43666
334.075	3.41086
334.289	1.35214
334.503	1.14302
334.717	2.21427
334.932	2.41658
335.146	3.08489
335.36	1.61367
335.574	2.55164
335.788	2.49507
336.003	2.85644
336.217	2.42472
336.431	2.55238
336.645	1.404
336.859	0.91489
337.073	1.72722
337.287	2.21485
337.501	1.05753
337.715	2.12386
337.929	2.71873
338.143	0.93891
338.357	1.93095
338.571	1.08634
338.785	2.24209
338.999	1.6182
339.213	1.46388
339.427	0.59744
339.641	3.2004
339.855	1.88415
340.069	1.44773
340.283	2.82175
340.497	3.8121
340.711	2.29022
340.924	1.71318
341.138	0.97669
341.352	0.80816
341.566	2.04739
341.78	0.53776
341.993	1.52969
342.207	1.10425
342.421	2.08953
342.635	1.82003
342.848	1.38314
343.062	0.21941
343.276	1.36486
343.49	3.71668
343.703	1.35977
343.917	2.81633
344.131	2.75792
344.344	1.36881
344.558	1.58761
344.771	0.97584
344.985	3.401
345.199	3.18261
345.412	2.16466
345.626	2.16135
345.839	0.60873
346.053	0.83167
346.266	0.92019
346.48	2.45341
346.693	2.16126
346.907	2.13354
347.12	1.10718
347.334	2.15826
347.547	2.1688
347.76	1.46024
347.974	2.88887
348.187	1.99555
348.401	1.45531
348.614	1.35505
348.827	1.40737
349.041	2.28946
349.254	0.47092
349.467	1.47773
349.681	0.75764
349.894	1.39315
350.107	2.88015
350.32	3.12731
350.534	0.54511
350.747	1.35736
350.96	1.07163
351.173	1.16164
351.386	1.45041
351.6	1.34045
351.813	1.26589
352.026	1.71703
352.239	0.53462
352.452	1.48992
352.665	2.39438
352.878	1.69074
353.092	3.38724
353.305	2.27411
353.518	1.97991
353.731	1.03872
353.944	2.72162
354.157	1.21041
354.37	0.87512
354.583	1.03099
354.796	0.36078
355.009	2.57231
355.222	1.86118
355.435	1.78074
355.647	2.44263
355.86	0.9049
356.073	1.66263
356.286	1.13512
356.499	2.15102
356.712	1.85549
356.925	2.11163
357.138	2.27188
357.35	0.94323
357.563	1.45233
357.776	1.68685
357.989	1.20209
358.201	1.99927
358.414	1.63063
358.627	2.64503
358.84	1.33732
359.052	0.69448
359.265	0.82049
359.478	2.43746
359.69	-0.46489
359.903	2.02448
360.116	2.17733
360.328	0.29953
360.541	2.18633
360.753	0.63109
360.966	1.04753
361.179	1.09955
361.391	1.02406
361.604	0.70634
361.816	1.13246
362.029	0.93331
362.241	0.77306
362.454	0.90605
362.666	0.72767
362.879	1.3339
363.091	1.08156
363.304	0.82334
363.516	1.35748
363.728	0.62023
363.941	1.67535
364.153	1.00966
364.366	-0.12524
364.578	0.57275
364.79	1.60886
365.003	1.18642
365.215	1.0471
365.427	1.69903
365.639	2.2259
365.852	1.49609
366.064	3.13014
366.276	1.05684
366.488	1.69132
366.701	1.02506
366.913	1.25026
367.125	1.23566
367.337	0.75589
367.549	1.03144
367.762	1.51449
367.974	1.51805
368.186	0.72295
368.398	2.05126
368.61	1.90781
368.822	1.87595
369.034	1.39384
369.246	1.70558
369.458	3.56271
369.67	0.66916
369.882	2.76793
370.094	0.1254
370.306	2.7038
370.518	1.1052
370.73	0.79343
370.942	0.78216
371.154	1.18641
371.366	0.82354
371.578	1.42821
371.79	0.70018
372.002	2.16507
372.214	2.55403
372.425	1.37694
372.637	2.16274
372.849	1.47636
373.061	-0.0467
373.273	1.58245
373.484	1.54856
373.696	1.93069
373.908	0.01786
374.12	2.2099
374.331	1.50504
374.543	0.8165
374.755	0.69013
374.967	1.55778
375.178	1.76366
375.39	1.10867
375.602	1.3579
375.813	0.36822
376.025	0.44048
376.236	1.34893
376.448	1.52637
376.66	0.88499
376.871	0.81711
377.083	2.25327
377.294	2.09305
377.506	0.88211
377.717	2.19363
377.929	1.39176
378.14	0.68752
378.352	1.60235
378.563	1.38296
378.775	2.07813
378.986	0.70311
379.197	1.23684
379.409	0.9084
379.62	1.81704
379.832	1.61114
380.043	0.96703
380.254	1.32839
380.466	0.56244
380.677	3.40706
380.888	2.75264
381.1	2.97982
381.311	2.89271
381.522	1.18562
381.733	3.34936
381.945	1.14668
382.156	1.4372
382.367	0.78036
382.578	3.22984
382.789	3.14256
383.001	1.01374
383.212	2.01212
383.423	2.25333
383.634	2.13214
383.845	1.5727
384.056	0.96994
384.267	1.20691
384.478	1.09916
384.69	0.51737
384.901	1.43603
385.112	1.49241
385.323	2.32617
385.534	1.61711
385.745	1.36946
385.956	1.56585
386.167	0.64517
386.378	1.55569
386.588	0.40257
386.799	0.74818
387.01	0.14324
387.221	1.80607
387.432	1.05496
387.643	2.49406
387.854	1.08547
388.065	0.96834
388.275	1.14843
388.486	0.96919
388.697	0.95117
388.908	0.96423
389.119	2.01905
389.329	2.34349
389.54	1.22995
389.751	1.43781
389.962	2.00741
390.172	1.46529
390.383	0.83784
390.594	0.90334
390.804	0.80342
391.015	0.81569
391.226	1.21496
391.436	1.42241
391.647	1.46908
391.858	1.6245
392.068	0.1228
392.279	0.30442
392.489	1.09277
392.7	1.9759
392.91	0.46105
393.121	0.67687
393.331	1.43069
393.542	1.92964
393.752	1.43512
393.963	1.26416
394.173	1.11363
394.384	1.4664
394.594	1.17002
394.804	0.34909
395.015	1.2633
395.225	1.36242
395.436	0.47834
395.646	1.51553
395.856	0.56236
396.067	0.34453
396.277	1.74054
396.487	1.39019
396.697	1.09522
396.908	1.45885
397.118	1.56745
397.328	1.29113
397.538	1.81479
397.749	0.52188
397.959	1.66757
398.169	1.66415
398.379	0.38585
398.589	1.78542
398.8	1.11768
399.01	0.88372
399.22	1.0643
399.43	2.69551
399.64	0.87606
399.85	1.64781
400.06	1.03829
400.27	0.62796
400.48	1.21764
400.69	2.33788
400.9	0.73899
401.11	0.64569
401.32	1.79383
401.53	0.85468
401.74	2.34037
401.95	1.67843
402.16	0.32005
402.37	1.27023
402.58	0.73143
402.79	1.64851
403	1.9363
403.209	0.84927
403.419	1.7589
403.629	0.69164
403.839	1.63797
404.049	1.60994
404.258	0.62066
404.468	0.56082
404.678	1.42606
404.888	1.53897
405.097	0.40483
405.307	1.01403
405.517	1.42301
405.727	1.14692
405.936	0.90393
406.146	1.21756
406.356	1.92578
406.565	1.17199
406.775	0.71093
406.984	0.75967
407.194	2.15232
407.404	1.13913
407.613	1.46112
407.823	1.66905
408.032	1.7615
408.242	1.92923
408.451	0.80255
408.661	1.03001
408.87	2.33032
409.08	0.79746
409.289	1.38569
409.499	1.22669
409.708	1.38785
409.918	0.05426
410.127	1.16659
410.336	2.28342
410.546	1.5966
410.755	0.88317
410.964	1.0015
411.174	0.69694
411.383	1.50085
411.592	1.57457
411.802	0.58174
412.011	1.75198
412.22	1.22391
412.429	2.29736
412.639	2.06266
412.848	1.98598
413.057	2.0553
413.266	2.06733
413.475	1.25073
413.685	1.66305
413.894	1.90835
414.103	2.14606
414.312	1.80521
414.521	1.23794
414.73	1.2581
414.939	2.6889
415.148	1.68454
415.357	1.40871
415.566	0.99054
415.776	1.01839
415.985	0.93311
416.194	1.81021
416.403	2.22326
416.611	0.43237
416.82	0.86267
417.029	1.24074
417.238	0.75431
417.447	0.5236
417.656	0.84481
417.865	0.65155
418.074	0.76897
418.283	0.96127
418.492	1.383
418.7	1.24942
418.909	1.74905
419.118	1.13161
419.327	1.26376
419.536	1.10231
419.744	0.63385
419.953	1.5891
420.162	1.58689
420.371	0.69761
420.579	0.54064
420.788	1.52295
420.997	1.32285
421.205	1.4674
421.414	1.20464
421.623	1.04088
421.831	0.80451
422.04	1.40087
422.249	0.70666
422.457	1.41129
422.666	0.76486
422.874	1.62143
423.083	1.66122
423.291	1.64249
423.5	1.21157
423.708	1.43518
423.917	1.64478
424.125	1.33008
424.334	1.00023
424.542	2.55374
424.751	1.9074
424.959	1.78748
425.167	1.9459
425.376	1.90879
425.584	1.28795
425.793	1.5686
426.001	0.92936
426.209	1.67063
426.418	0.97188
426.626	1.05951
426.834	0.86699
427.042	1.35062
427.251	1.02373
427.459	1.87186
427.667	1.43678
427.875	0.8626
428.084	1.15178
428.292	2.16551
428.5	1.61827
428.708	1.04931
428.916	0.87765
429.124	1.56793
429.333	1.22411
429.541	1.27024
429.749	1.51598
429.957	1.49941
430.165	2.93789
430.373	0.76798
430.581	1.63446
430.789	2.30044
430.997	1.15258
431.205	1.22112
431.413	1.53415
431.621	1.23595
431.829	1.81216
432.037	1.33779
432.245	1.70511
432.453	1.55753
432.661	1.24154
432.869	2.48611
433.076	0.89155
433.284	1.31616
433.492	1.60265
433.7	1.95734
433.908	1.10107
434.116	1.61553
434.323	1.47081
434.531	1.41157
434.739	1.60435
434.947	2.04161
435.154	1.79667
435.362	1.56852
435.57	1.39338
435.778	1.24844
435.985	1.80833
436.193	1.36821
436.401	2.1813
436.608	1.59301
436.816	1.31025
437.023	2.46946
437.231	2.4393
437.439	1.82934
437.646	1.87222
437.854	1.81975
438.061	1.92371
438.269	1.50682
438.476	1.93043
438.684	1.52826
438.891	1.31336
439.099	1.03773
439.306	0.83178
439.514	0.98497
439.721	1.66026
439.929	1.19745
440.136	1.81138
440.343	1.71187
440.551	1.43177
440.758	2.87635
440.965	1.94329
441.173	1.66824
441.38	1.33276
441.587	1.75902
441.795	1.33478
442.002	1.67497
442.209	1.67209
442.416	1.96757
442.624	1.93437
442.831	1.81056
443.038	1.31367
443.245	1.1048
443.452	1.4071
443.66	1.97056
443.867	1.17963
444.074	1.37597
444.281	1.24356
444.488	1.47679
444.695	1.54937
444.902	1.33538
445.109	1.8374
445.316	1.48898
445.523	1.35304
445.73	1.25229
445.937	1.74967
446.144	2.04134
446.351	1.93775
446.558	1.35152
446.765	2.29337
446.972	2.40993
447.179	1.68253
447.386	2.63347
447.593	1.576
447.8	2.36482
448.007	1.54146
448.214	1.66087
448.42	1.29587
448.627	2.11185
448.834	1.52486
449.041	1.53176
449.248	1.50428
449.454	2.10572
449.661	2.75774
449.868	1.56601
450.075	1.44881
450.281	0.67755
450.488	1.15278
450.695	1.38494
450.901	1.33908
451.108	1.50437
451.315	2.28841
451.521	1.65481
451.728	2.27983
451.935	1.39351
452.141	1.66727
452.348	1.79545
452.554	1.61096
452.761	1.47448
452.967	2.51987
453.174	1.75729
453.38	1.9159
453.587	1.18562
453.793	1.75672
454	2.41081
454.206	2.85221
454.413	2.37749
454.619	1.95684
454.825	1.43555
455.032	2.13069
455.238	2.29686
455.445	1.22491
455.651	1.88629
455.857	0.87376
456.064	1.60558
456.27	1.65524
456.476	1.68605
456.682	1.14392
456.889	2.07433
457.095	2.0983
457.301	3.25881
457.507	1.85041
457.714	1.77971
457.92	1.71218
458.126	1.31422
458.332	1.59752
458.538	1.45514
458.744	1.48895
458.951	1.5047
459.157	2.87902
459.363	1.76179
459.569	1.69535
459.775	2.37341
459.981	1.45804
460.187	1.80161
460.393	2.19622
460.599	2.73303
460.805	1.98245
461.011	1.87511
461.217	2.29786
461.423	2.32453
461.629	1.69518
461.835	2.11307
462.041	1.6727
462.247	2.69222
462.453	1.77304
462.658	1.88882
462.864	2.26736
463.07	2.17759
463.276	2.14283
463.482	2.08792
463.688	2.54634
463.893	1.81449
464.099	1.81475
464.305	2.74987
464.511	1.69634
464.716	1.96456
464.922	2.28037
465.128	1.64727
465.333	2.86622
465.539	2.26285
465.745	1.80388
465.95	2.11294
466.156	3.43996
466.362	2.7747
466.567	1.87178
466.773	1.76511
466.978	2.94273
467.184	1.55566
467.389	0.91768
467.595	2.28299
467.8	1.60609
468.006	2.7797
468.211	2.58235
468.417	1.47224
468.622	2.22804
468.828	2.52555
469.033	2.20939
469.239	3.56656
469.444	1.81871
469.649	2.67554
469.855	2.00733
470.06	2.04405
470.266	1.59198
470.471	2.38443
470.676	2.21867
470.881	1.25235
471.087	2.66838
471.292	3.5866
471.497	1.44391
471.703	1.89563
471.908	1.78244
472.113	2.12342
472.318	2.52188
472.523	1.5709
472.729	2.29671
472.934	2.55249
473.139	1.81406
473.344	2.37858
473.549	2.68952
473.754	1.81595
473.959	3.53938
474.164	1.64286
474.369	2.08103
474.575	2.59968
474.78	2.14715
474.985	1.79617
475.19	1.17804
475.395	1.61895
475.6	2.08302
475.804	2.84125
476.009	1.9612
476.214	2.1282
476.419	1.85351
476.624	1.1808
476.829	1.53684
477.034	2.3527
477.239	1.54462
477.444	2.37683
477.648	2.25903
477.853	2.33019
478.058	1.85003
478.263	1.53016
478.468	1.3848
478.672	1.50782
478.877	2.54036
479.082	2.73967
479.287	2.16179
479.491	2.02727
479.696	1.35439
479.901	2.34996
480.105	2.35266
480.31	1.68398
480.515	1.84929
480.719	3.03928
480.924	1.64129
481.128	1.35644
481.333	1.94628
481.538	1.92424
481.742	1.60876
481.947	2.17726
482.151	2.26174
482.356	2.13565
482.56	2.76089
482.765	2.74013
482.969	3.48895
483.174	3.91623
483.378	4.73889
483.582	4.50398
483.787	5.26678
483.991	5.05313
484.196	5.36219
484.4	5.13727
484.604	5.94151
484.809	4.72588
485.013	4.73318
485.217	4.22226
485.422	3.76625
485.626	3.45781
485.83	3.23262
486.034	3.10154
486.239	3.22919
486.443	3.20576
486.647	2.95692
486.851	3.57724
487.055	4.03095
487.26	3.37242
487.464	3.68454
487.668	3.27986
487.872	3.26607
488.076	3.75334
488.28	3.42799
488.484	3.24404
488.688	3.23072
488.892	3.42593
489.096	3.3527
489.3	2.89316
489.504	2.77747
489.708	2.86791
489.912	2.81157
490.116	2.85817
490.32	2.12928
490.524	2.72883
490.728	2.8786
490.932	2.7703
491.136	2.59627
491.34	3.42059
491.544	3.42125
491.748	3.10635
491.951	3.2638
492.155	2.95427
492.359	3.15996
492.563	2.54363
492.767	2.45435
492.97	2.43724
493.174	2.07711
493.378	2.11185
493.582	1.57695
493.785	1.87119
493.989	1.94745
494.193	2.05006
494.396	1.84639
494.6	2.39259
494.804	1.98698
495.007	1.68502
495.211	1.72598
495.414	1.98414
495.618	2.11979
495.822	2.65685
496.025	1.95959
496.229	2.33729
496.432	1.49146
496.636	2.00177
496.839	1.78924
497.043	2.71231
497.246	2.07493
497.45	1.7426
497.653	1.85833
497.856	2.04059
498.06	1.3919
498.263	1.86308
498.467	1.58139
498.67	2.36604
498.873	2.11904
499.077	1.8482
499.28	1.82615
499.483	2.16219
499.686	2.28338
499.89	2.21217
500.093	2.44625
500.296	1.72277
500.499	2.76074
500.703	2.03538
500.906	2.22617
501.109	3.01315
501.312	2.09701
501.515	1.9818
501.719	2.22746
501.922	2.80758
502.125	2.20457
502.328	2.04857
502.531	1.60307
502.734	2.09072
502.937	1.16572
503.14	2.22601
503.343	1.57115
503.546	1.79972
503.749	1.6045
503.952	2.47249
504.155	1.59988
504.358	2.31251
504.561	1.95109
504.764	1.43856
504.967	1.98322
505.17	2.00133
505.373	2.77373
505.576	2.20021
505.778	2.38759
505.981	1.741
506.184	2.62631
506.387	1.33488
506.59	3.11055
506.793	2.63811
506.995	2.30234
507.198	1.14227
507.401	2.16993
507.604	2.24386
507.806	1.51114
508.009	1.60696
508.212	2.2884
508.414	1.62592
508.617	1.58269
508.82	1.78781
509.022	2.54362
509.225	2.03075
509.427	1.21987
509.63	2.55704
509.833	1.93423
510.035	1.79244
510.238	1.16186
510.44	2.56022
510.643	1.01381
510.845	3.04947
511.048	2.1042
511.25	1.69927
511.453	1.86631
511.655	2.07276
511.858	1.73891
512.06	2.30607
512.262	1.97735
512.465	2.26613
512.667	1.49015
512.869	1.42454
513.072	2.07147
513.274	2.32081
513.476	2.12248
513.679	2.38907
513.881	1.46268
514.083	2.79744
514.286	1.60022
514.488	1.73595
514.69	1.60999
514.892	1.42691
515.094	2.16191
515.297	1.80722
515.499	2.10229
515.701	1.57807
515.903	2.80112
516.105	2.793
516.307	2.39989
516.509	1.10175
516.711	1.4249
516.913	2.06583
517.116	1.84142
517.318	1.67379
517.52	2.45346
517.722	2.1292
517.924	1.18005
518.126	1.93965
518.328	1.46204
518.529	2.06134
518.731	2.84092
518.933	1.41159
519.135	1.71106
519.337	2.49119
519.539	1.96313
519.741	0.99765
519.943	1.65072
520.145	1.73288
520.346	2.03688
520.548	1.67489
520.75	1.94604
520.952	1.74483
521.153	1.98125
521.355	2.07438
521.557	1.45517
521.759	2.13403
521.96	1.95796
522.162	1.50468
522.364	2.4949
522.565	1.67119
522.767	2.29908
522.969	2.52182
523.17	2.2262
523.372	2.26288
523.573	1.39334
523.775	1.82454
523.977	1.52191
524.178	2.9883
524.38	1.58233
524.581	2.21483
524.783	1.71681
524.984	2.11502
525.186	1.77424
525.387	2.11882
525.589	1.8087
525.79	1.71006
525.991	1.43762
526.193	2.03895
526.394	1.21526
526.596	2.12448
526.797	1.98187
526.998	1.73673
527.2	1.38059
527.401	2.47529
527.602	2.23177
527.803	3.15732
528.005	2.92345
528.206	3.23209
528.407	3.44811
528.608	3.06137
528.81	3.1984
529.011	2.8034
529.212	3.70357
529.413	3.14398
529.614	2.94226
529.815	3.0928
530.017	2.94849
530.218	2.52885
530.419	2.02798
530.62	2.30087
530.821	2.23762
531.022	1.48189
531.223	2.24788
531.424	2.42824
531.625	2.12626
531.826	1.97871
532.027	2.01516
532.228	2.66386
532.429	2.1679
532.63	2.05389
532.831	2.33864
533.032	2.43863
533.233	2.66342
533.433	2.52722
533.634	2.70305
533.835	2.23163
534.036	1.96866
534.237	2.21633
534.438	1.87809
534.638	1.53162
534.839	1.62907
535.04	2.09687
535.241	1.58545
535.441	2.39679
535.642	2.0179
535.843	1.34417
536.043	1.39011
536.244	1.57651
536.445	1.67402
536.645	2.33604
536.846	1.79657
537.047	2.63593
537.247	1.54065
537.448	1.66407
537.648	1.6326
537.849	1.73213
538.049	1.67161
538.25	2.13089
538.451	1.91312
538.651	1.50992
538.851	2.16548
539.052	2.47949
539.252	2.22329
539.453	1.97339
539.653	1.79459
539.854	1.87355
540.054	1.64909
540.254	2.47772
540.455	2.55387
540.655	1.92917
540.855	2.4203
541.056	2.76111
541.256	2.32883
541.456	3.03807
541.657	2.41694
541.857	3.29703
542.057	2.07467
542.257	2.13232
542.458	2.71047
542.658	3.13234
542.858	1.88565
543.058	2.68917
543.258	2.30287
543.458	1.59597
543.659	1.41134
543.859	2.192
544.059	2.08372
544.259	1.83882
544.459	2.35849
544.659	1.64928
544.859	2.10561
545.059	1.68764
545.259	2.18504
545.459	2.10736
545.659	2.31065
545.859	2.00963
546.059	2.14741
546.259	1.53418
546.459	1.11529
546.659	1.47347
546.859	2.19149
547.059	1.91047
547.258	2.10806
547.458	2.10209
547.658	1.35474
547.858	1.47088
548.058	2.03262
548.258	1.93991
548.457	1.58295
548.657	3.45128
548.857	1.90513
549.057	2.66789
549.256	2.37944
549.456	2.09519
549.656	1.17451
549.855	3.57611
550.055	2.08274
550.255	3.19644
550.454	2.48342
550.654	2.9066
550.853	3.23447
551.053	2.89629
551.253	2.51194
551.452	2.71961
551.652	1.44629
551.851	1.28975
552.051	1.91853
552.25	1.90752
552.45	1.73051
552.649	1.84897
552.849	1.58172
553.048	2.29748
553.248	2.49846
553.447	1.60302
553.646	2.58394
553.846	3.82571
554.045	3.08009
554.244	1.62884
554.444	3.15515
554.643	1.72361
554.842	3.20463
555.042	3.55735
555.241	2.0982
555.44	1.80365
555.64	2.4906
555.839	3.18663
556.038	2.61703
556.237	2.0052
556.436	2.29906
556.636	2.72833
556.835	1.95787
557.034	3.28795
557.233	2.38432
557.432	1.65213
557.631	3.07997
557.83	2.34111
558.029	2.17427
558.228	2.23394
558.427	1.8557
558.626	2.7448
558.825	1.96346
559.024	2.47314
559.223	3.56336
559.422	2.54685
559.621	2.79841
559.82	1.09484
560.019	2.47218
560.218	2.03859
560.417	0.67452
560.616	2.13866
560.815	4.51338
561.014	1.46584
561.212	3.08443
561.411	2.50407
561.61	1.47512
561.809	2.22621
562.008	3.58623
562.206	2.39755
562.405	2.58163
562.604	2.20501
562.803	2.53481
563.001	2.4709
563.2	1.44098
563.399	2.9322
563.597	1.69651
563.796	2.5313
563.995	1.39804
564.193	2.96518
564.392	1.98349
564.59	3.93478
564.789	1.13257
564.988	2.12925
565.186	2.37398
565.385	2.13951
565.583	1.90557
565.782	2.18422
565.98	1.89421
566.179	1.97757
566.377	1.35832
566.575	1.47936
566.774	2.82454
566.972	2.78034
567.171	3.41622
567.369	3.16437
567.567	2.21723
567.766	2.43885
567.964	0.94637
568.162	2.69631
568.361	3.14966
568.559	2.23356
568.757	2.49757
568.956	2.4959
569.154	2.31845
569.352	2.95781
569.55	2.22508
569.748	2.28692
569.947	1.73553
570.145	1.84447
570.343	1.57239
570.541	3.4239
570.739	1.23051
570.937	2.32536
571.135	2.51692
571.333	3.75093
571.532	3.56478
571.73	2.32881
571.928	2.74217
572.126	2.63214
572.324	1.80888
572.522	2.90926
572.72	3.77091
572.918	2.21599
573.116	2.42364
573.313	2.1623
573.511	1.94899
573.709	2.1146
573.907	2.66255
574.105	1.97459
574.303	1.23061
574.501	1.19139
574.699	2.40623
574.896	2.36876
575.094	2.71564
575.292	1.48325
575.49	2.82474
575.688	2.28149
575.885	3.10815
576.083	3.81593
576.281	2.55786
576.478	1.8602
576.676	2.79038
576.874	1.61866
577.071	2.42712
577.269	4.05113
577.467	2.23823
577.664	2.61125
577.862	2.95437
578.059	2.04211
578.257	3.11497
578.455	2.49756
578.652	2.51619
578.85	1.2919
579.047	2.73015
579.245	2.49339
579.442	2.7542
579.64	2.53132
579.837	1.39814
580.034	4.64206
580.232	2.49242
580.429	2.0259
580.627	3.15085
580.824	3.7379
581.021	3.2081
581.219	2.56461
581.416	2.2479
581.613	3.84958
581.811	3.65407
582.008	2.23152
582.205	3.42555
582.402	3.14737
582.6	4.15793
582.797	3.12819
582.994	3.4787
583.191	3.76592
583.388	3.03663
583.586	3.45653
583.783	4.00884
583.98	2.09277
584.177	3.15143
584.374	0.67837
584.571	2.91527
584.768	3.12205
584.965	2.62805
585.162	3.75461
585.359	4.28093
585.556	3.07363
585.753	3.36481
585.95	1.94322
586.147	2.27537
586.344	3.43304
586.541	2.86292
586.738	2.14606
586.935	2.94587
587.132	2.52276
587.329	4.03932
587.526	2.98979
587.722	7.28566
587.919	1.9065
588.116	3.21292
588.313	4.16338
588.51	4.77134
588.706	2.83026
588.903	3.35782
589.1	3.80812
589.297	5.53297
589.493	2.87258
589.69	3.44777
589.887	2.51447
590.083	1.87465
590.28	2.2978
590.477	3.94736
590.673	3.38248
590.87	3.91877
591.067	2.45695
591.263	3.36018
591.46	3.41989
591.656	2.8097
591.853	4.61074
592.049	2.42265
592.246	2.52815
592.442	4.04075
592.639	3.88486
592.835	2.08965
593.032	3.29205
593.228	1.81743
593.425	2.00081
593.621	1.89222
593.817	3.14844
594.014	2.48922
594.21	3.32864
594.406	3.97997
594.603	3.01723
594.799	2.58486
594.995	1.12737
595.192	3.75376
595.388	2.54676
595.584	2.43229
595.78	1.85378
595.977	5.35001
596.173	4.26069
596.369	2.58658
596.565	1.99204
596.761	1.54428
596.957	3.56029
597.154	1.97803
597.35	2.23706
597.546	2.04788
597.742	2.82609
597.938	2.90146
598.134	1.92537
598.33	2.88931
598.526	3.91337
598.722	3.41151
598.918	4.61146
599.114	3.65917
599.31	2.24606
599.506	3.28236
599.702	2.70178
599.898	3.54801
600.094	4.15757
600.29	4.16076
600.485	3.81461
600.681	2.84811
600.877	4.64745
601.073	3.36131
601.269	5.28935
601.465	4.53508
601.66	2.42557
601.856	1.60308
602.052	5.34094
602.248	2.82577
602.443	1.35041
602.639	1.87209
602.835	2.4026
603.03	2.2437
603.226	3.62465
603.422	2.30554
603.617	2.71179
603.813	2.551
604.009	2.13988
604.204	3.76346
604.4	1.44126
604.595	3.61209
604.791	1.88094
604.986	2.7451
605.182	1.88542
605.377	2.08044
605.573	2.31402
605.768	2.69835
605.964	3.15471
606.159	3.4384
606.355	3.85953
606.55	2.66515
606.746	3.86025
606.941	3.17774
607.136	4.66501
607.332	5.89266
607.527	2.14469
607.722	3.60806
607.918	3.07198
608.113	2.21342
608.308	3.83162
608.503	3.64379
608.699	3.428
608.894	3.42214
609.089	2.28795
609.284	3.25456
609.479	2.4024
609.675	3.3756
609.87	2.77991
610.065	3.38513
610.26	3.82282
610.455	3.65014
610.65	2.98588
610.845	3.53888
611.04	3.86242
611.235	3.03392
611.43	3.21929
611.625	2.45409
611.82	4.67047
612.015	2.87146
612.21	5.35757
612.405	2.24459
612.6	5.5196
612.795	5.29921
612.99	4.6497
613.185	2.62052
613.38	2.88899
613.575	4.00811
613.77	6.74984
613.965	2.22586
614.159	3.04216
614.354	4.89814
614.549	4.94321
614.744	4.18956
614.938	2.61701
615.133	2.49144
615.328	5.30355
615.523	5.11725
615.717	6.94684
615.912	3.56225
616.107	3.92146
616.301	3.52432
616.496	2.98297
616.691	5.89215
616.885	4.64449
617.08	6.58773
617.274	5.10641
617.469	6.19322
617.664	4.60105
617.858	3.27846
618.053	4.09537
618.247	3.51708
618.442	1.55764
618.636	5.35182
618.831	3.27462
619.025	3.51667
619.219	7.20743
619.414	0.35914
619.608	3.71336
619.803	2.78281
619.997	6.43252
620.191	5.14243
620.386	4.37235
620.58	4.01128
620.774	2.05345
620.969	1.98665
621.163	4.07909
621.357	2.46252
621.551	3.75655
621.746	4.22604
621.94	3.88013
622.134	8.06734
622.328	6.49704
622.522	2.42582
622.716	5.27176
622.911	4.81697
623.105	4.8947
623.299	4.20526
623.493	7.75748
623.687	3.08188
623.881	3.41083
624.075	5.06035
624.269	5.38148
624.463	1.85902
624.657	2.11021
624.851	4.81807
625.045	4.9601
625.239	4.85327
625.433	2.91454
625.627	6.14291
625.821	3.18191
626.015	2.73181
626.209	3.70849
626.403	1.57183
626.596	4.14353
626.79	4.62052
626.984	2.23345
627.178	4.15127
627.372	4.12945
627.565	4.33538
627.759	2.12425
627.953	2.39733
628.147	4.22866
628.34	4.53602
628.534	6.27727
628.728	3.4099
628.921	5.05344
629.115	5.00751
629.309	4.92023
629.502	5.21801
629.696	4.32
629.89	4.04332
630.083	4.29557
630.277	4.39833
630.47	6.5125
630.664	3.76591
630.857	2.47073
631.051	5.28233
631.244	5.66813
631.438	5.57684
631.631	3.51818
631.825	5.87803
632.018	4.70106
632.212	6.38037
632.405	5.8073
632.598	3.41692
632.792	4.49822
632.985	1.46894
633.178	3.39968
633.372	4.32306
633.565	4.06753
633.758	5.8221
633.952	3.1384
634.145	3.08402
634.338	4.16099
634.531	3.75609
634.724	2.97719
634.918	4.36231
635.111	3.88391
635.304	3.82676
635.497	7.00013
635.69	4.6769
635.883	5.6868
636.077	2.8545
636.27	4.67477
636.463	4.66178
636.656	4.87811
636.849	3.90823
637.042	4.88946
637.235	7.55084
637.428	5.4668
637.621	5.11074
637.814	6.70051
638.007	6.97714
638.2	6.84407
638.393	7.30828
638.586	2.85259
638.778	4.10524
638.971	4.83562
639.164	7.0415
639.357	5.52855
639.55	7.08948
639.743	5.96987
639.935	5.71648
640.128	8.47926
640.321	6.33227
640.514	5.65825
640.707	8.74896
640.899	6.03801
641.092	2.62219
641.285	21.03828
641.477	2.19025
641.67	8.75322
641.863	6.81748
642.055	5.42757
642.248	5.20619
642.441	4.85726
642.633	6.1477
642.826	7.60627
643.018	7.43289
643.211	8.09588
643.403	8.66012
643.596	8.92204
643.788	8.04664
643.981	4.62575
644.173	6.36526
644.366	4.56863
644.558	2.82645
644.751	6.96256
644.943	3.60762
645.135	8.4249
645.328	8.44135
645.52	6.79089
645.712	7.35772
645.905	10.81526
646.097	3.75829
646.289	6.59883
646.482	9.10123
646.674	4.11668
646.866	7.36225
647.058	6.71424
647.251	4.2929
647.443	4.9588
647.635	5.24737
647.827	4.227
648.019	3.75666
648.211	5.71094
648.404	5.96384
648.596	8.4489
648.788	6.66916
648.98	6.01801
649.172	6.51222
649.364	6.47433
649.556	3.16033
649.748	9.9631
649.94	4.41071
650.132	6.99393
650.324	4.41109
650.516	4.57654
650.708	7.2996
650.9	3.57695
651.092	2.87237
651.284	3.39902
651.476	3.97287
651.667	6.65552
651.859	8.32976
652.051	5.56426
652.243	6.02559
652.435	5.12319
652.627	6.40722
652.818	6.74452
653.01	3.10485
653.202	4.59001
653.394	5.6151
653.585	6.5534
653.777	13.51282
653.969	8.57399
654.16	8.06301
654.352	4.40956
654.544	6.14645
654.735	8.21619
654.927	5.94328
655.118	8.81382
655.31	7.26563
655.502	7.93997
655.693	5.19754
655.885	6.88684
656.076	8.74306
656.268	6.62123
656.459	8.20669
656.651	8.59191
656.842	5.3809
657.034	4.97114
657.225	7.63331
657.416	8.56971
657.608	8.32469
657.799	6.03892
657.99	7.75378
658.182	4.3698
658.373	4.49953
658.564	7.90195
658.756	6.33362
658.947	5.30292
659.138	4.01094
659.33	4.74867
659.521	4.31763
659.712	5.25458
659.903	4.99037
660.094	4.57951
660.286	3.15236
660.477	8.8335
660.668	6.82866
660.859	5.7247
661.05	3.69921
661.241	6.93996
661.432	6.76823
661.623	5.54859
661.814	5.31076
662.006	3.40627
662.197	6.37838
662.388	8.38556
662.579	7.06004
662.77	8.97353
662.96	11.56525
663.151	8.68756
663.342	3.30563
663.533	7.16079
663.724	6.53171
663.915	10.18766
664.106	6.81209
664.297	10.26557
664.488	8.06201
664.678	5.6432
664.869	8.35551
665.06	8.16767
665.251	7.19006
665.442	8.03369
665.632	5.27622
665.823	11.32142
666.014	1.87289
666.204	8.21581
666.395	9.60087
666.586	12.02293
666.776	8.54762
666.967	10.33365
667.158	6.8738
667.348	10.20874
667.539	5.17913
667.729	9.26423
667.92	5.77326
668.111	9.16063
668.301	8.52668
668.492	6.53451
668.682	6.89578
668.873	6.55612
669.063	4.61092
669.253	7.44259
669.444	10.45148
669.634	6.9148
669.825	10.73666
670.015	9.31448
670.206	5.96535
670.396	11.7234
670.586	6.38551
670.777	8.23637
670.967	2.77171
671.157	6.66463
671.347	6.16264
671.538	10.69752
671.728	8.67845
671.918	11.18822
672.108	9.26246
672.299	7.18378
672.489	7.88006
672.679	5.96642
672.869	8.46798
673.059	12.40227
673.249	8.34931
673.44	5.84801
673.63	6.96534
673.82	9.523
674.01	5.57669
674.2	8.93282
674.39	13.60819
674.58	9.00531
674.77	8.04381
674.96	7.47079
675.15	16.72974
675.34	9.97879
675.53	7.96496
675.72	6.29983
675.91	4.21097
676.099	12.19615
676.289	13.37446
676.479	9.93546
676.669	6.31293
676.859	9.2458
677.049	6.3308
677.238	8.1371
677.428	11.43631
677.618	9.20224
677.808	12.44399
677.997	8.96127
678.187	5.68557
678.377	7.63025
678.567	6.51871
678.756	7.14846
678.946	7.62096
679.136	4.9319
679.325	6.15185
679.515	5.76475
679.704	4.69998
679.894	9.4462
680.084	8.07356
680.273	10.17579
680.463	5.30832
680.652	5.25299
680.842	7.25587
681.031	9.47193
681.221	5.61135
681.41	8.25552
681.6	7.01344
681.789	9.01198
681.978	10.2993
682.168	8.48358
682.357	8.48087
682.547	9.20463
682.736	8.38159
682.925	10.94611
683.115	10.75998
683.304	9.59123
683.493	8.45381
683.682	9.5523
683.872	9.44024
684.061	10.81067
684.25	9.96162
684.439	14.40623
684.629	10.31279
684.818	17.13214
685.007	8.35536
685.196	8.1264
685.385	13.37036
685.574	9.7246
685.763	9.36529
685.952	9.6034
686.142	5.92724
686.331	12.54182
686.52	5.45528
686.709	14.19575
686.898	13.62537
687.087	10.71869
687.276	13.61673
687.465	12.47069
687.654	8.15135
687.842	12.4947
688.031	5.57993
688.22	12.88196
688.409	9.72674
688.598	9.70282
688.787	15.50396
688.976	9.74257
689.165	14.42918
689.353	8.04363
689.542	11.27619
689.731	12.56486
689.92	15.60621
690.108	11.86073
690.297	8.92225
690.486	10.1755
690.675	11.34725
690.863	14.33886
691.052	14.24162
691.241	10.84648
691.429	10.60566
691.618	13.23346
691.806	7.24922
691.995	9.33778
692.184	9.93203
692.372	9.54031
692.561	9.99187
692.749	11.03937
692.938	19.86332
693.126	12.18254
693.315	10.09189
693.503	12.03829
693.692	13.18062
693.88	12.79419
694.068	16.43928
694.257	11.59754
694.445	12.48073
694.634	5.57225
694.822	13.14415
695.01	14.50697
695.199	17.24551
695.387	15.21092
695.575	14.65713
695.763	10.11111
695.952	10.00152
696.14	6.37026
696.328	8.95155
696.516	11.36881
696.705	11.61509
696.893	11.3172
697.081	6.4416
697.269	12.85862
697.457	7.46997
697.645	6.14232
697.833	12.17439
698.021	7.90585
698.21	7.87025
698.398	8.71622
698.586	6.2893
698.774	5.52776
698.962	8.86833
699.15	5.97546
699.338	4.97942
699.526	10.09739
699.714	7.12659
699.901	6.89503
700.089	10.82281
700.277	7.00878
700.465	8.69487
700.653	11.38296
700.841	11.05126
701.029	7.87587
701.217	13.92156
701.404	10.26043
701.592	14.2127
701.78	17.26641
701.968	9.24707
702.155	9.56618
702.343	7.15821
702.531	15.17682
702.718	12.38651
702.906	9.36128
703.094	9.68666
703.281	15.29375
703.469	9.57623
703.657	14.81482
703.844	21.89264
704.032	17.85814
704.219	10.41185
704.407	13.41702
704.595	16.57951
704.782	13.19334
704.97	11.97527
705.157	11.69939
705.345	18.93799
705.532	23.98146
705.719	15.73046
705.907	18.66305
706.094	15.19899
706.282	21.80413
706.469	14.87994
706.656	16.39092
706.844	15.43986
707.031	19.85785
707.218	17.63205
707.406	22.6704
707.593	19.38032
707.78	19.46434
707.968	17.1996
708.155	14.41264
708.342	19.92191
708.529	20.06927
708.716	18.64156
708.904	23.24454
709.091	19.79374
709.278	14.36286
709.465	23.52333
709.652	22.61782
709.839	21.4687
710.026	17.72159
710.213	11.4193
710.4	17.70075
710.587	18.99812
710.774	20.57298
710.961	20.62203
711.148	17.13309
711.335	20.5327
711.522	16.64351
711.709	18.43608
711.896	24.00446
712.083	20.82938
712.27	13.81956
712.457	18.31976
712.644	12.01655
712.831	24.49907
713.017	18.32268
713.204	19.74948
713.391	14.07801
713.578	20.11841
713.765	21.85315
713.951	17.9634
714.138	27.8252
714.325	16.67514
714.512	15.40908
714.698	12.56382
714.885	20.13093
715.072	15.85623
715.258	14.94378
715.445	12.95228
715.631	19.04069
715.818	5.3842
716.005	12.40566
716.191	16.83487
716.378	12.58338
716.564	16.72335
716.751	10.77967
716.937	12.65831
717.124	18.1513
717.31	11.06173
717.497	21.86719
717.683	11.63962
717.869	22.7137
718.056	12.54929
718.242	17.16669
718.429	14.14741
718.615	10.15754
718.801	14.68266
718.988	19.10583
719.174	17.50333
719.36	13.03136
719.547	19.1572
719.733	16.43226
719.919	16.26263
720.105	17.26236
720.291	14.93961
720.478	16.11183
720.664	14.04706
720.85	13.27412
721.036	27.24145
721.222	22.83177
721.408	14.93226
721.595	23.1074
721.781	22.2446
721.967	20.83454
722.153	22.90739
722.339	18.43775
722.525	17.87805
722.711	12.11052
722.897	9.19369
723.083	13.94929
723.269	21.36972
723.455	28.67444
723.641	34.3943
723.827	16.62876
724.012	17.81605
724.198	16.46121
724.384	21.79102
724.57	17.45553
724.756	10.45313
724.942	8.37267
725.127	21.66557
725.313	22.06127
725.499	22.40323
725.685	25.95572
725.87	18.10148
726.056	12.15801
726.242	21.7884
726.428	9.71188
726.613	20.39484
726.799	15.53983
726.985	12.07105
727.17	9.94174
727.356	26.23934
727.541	12.72337
727.727	16.11021
727.913	20.79358
728.098	14.40345
728.284	19.91541
728.469	11.29575
728.655	12.93546
728.84	21.70521
729.026	20.19369
729.211	20.05941
729.397	18.23957
729.582	20.5694
729.767	16.15397
729.953	18.18809
730.138	22.85001
730.323	6.8451
730.509	11.12184
730.694	24.32819
730.879	19.88711
731.065	18.43339
731.25	27.85671
731.435	19.88666
731.621	10.39392
731.806	14.32202
731.991	18.64071
732.176	11.33116
732.361	24.32881
732.547	18.51687
732.732	9.67897
732.917	28.04189
733.102	11.56057
733.287	14.49956
733.472	16.69396
733.657	16.38033
733.842	10.35099
734.027	14.34233
734.212	15.73821
734.397	13.11596
734.582	17.25602
734.767	20.8945
734.952	23.75401
735.137	6.04976
735.322	23.77446
735.507	18.80356
735.692	18.39855
735.877	28.00761
736.062	27.60023
736.247	18.46802
736.431	17.42742
736.616	22.94932
736.801	19.69512
736.986	18.12477
737.171	13.27089
737.355	11.91557
737.54	25.23564
737.725	17.95829
737.909	32.67139
738.094	15.71493
738.279	20.64008
738.463	16.78881
738.648	21.70863
738.833	19.52991
739.017	30.13244
739.202	16.80061
739.386	17.3914
739.571	14.03164
739.756	23.10595
739.94	18.38242
740.125	22.02223
740.309	14.50161
740.494	22.43786
740.678	19.93296
740.863	21.31548
741.047	18.78126
741.231	27.06571
741.416	14.95974
741.6	25.98138
741.785	14.27214
741.969	23.53554
742.153	26.28548
742.338	7.97037
742.522	18.02363
742.706	22.77974
742.89	12.20022
743.075	18.64146
743.259	25.46672
743.443	25.52699
743.627	25.47111
743.812	31.23351
743.996	11.13314
744.18	17.89855
744.364	16.54338
744.548	33.64493
744.732	18.0911
744.916	23.08065
745.1	22.81236
745.285	16.58265
745.469	21.30898
745.653	28.99119
745.837	13.0525
746.021	33.64536
746.205	26.1093
746.389	20.80774
746.573	16.94521
746.757	28.47352
746.94	15.45993
747.124	27.00689
747.308	11.96787
747.492	26.61028
747.676	14.62393
747.86	35.16962
748.044	17.91852
748.227	10.58952
748.411	43.85234
748.595	20.31149
748.779	15.20411
748.963	22.70461
749.146	20.74281
749.33	15.81242
749.514	14.09342
749.697	26.99957
749.881	15.23483
750.065	13.17782
750.248	20.75693
750.432	34.3776
750.616	20.20879
750.799	12.85355
750.983	35.53292
751.166	35.79515
751.35	10.1891
751.533	23.6357
751.717	31.28754
751.9	29.43148
752.084	17.95765
752.267	14.90021
752.451	15.03629
752.634	19.38277
752.818	23.58532
753.001	26.19059
753.184	27.27515
753.368	21.37936
753.551	1.8194
753.734	15.41134
753.918	36.23625
754.101	16.90451
754.284	25.21124
754.467	17.48222
754.651	15.96371
754.834	14.19787
755.017	27.84234
755.2	27.47111
755.384	13.81702
755.567	23.80102
755.75	25.88973
755.933	17.21054
756.116	25.73391
756.299	16.74151
756.482	13.42544
756.665	23.46858
756.848	20.56202
757.032	22.17843
757.215	12.38738
757.398	14.9781
757.581	15.05746
757.764	39.12635
757.947	20.86155
758.129	26.64089
758.312	3.82303
758.495	19.41741
758.678	20.05499
758.861	18.2464
759.044	33.74332
759.227	14.3013
759.41	14.96556
759.592	24.26908
759.775	19.69764
759.958	25.41941
760.141	13.37404
760.324	36.23073
760.506	30.41941
760.689	25.35214
760.872	36.64759
761.054	23.2448
761.237	19.15538
761.42	22.26287
761.602	26.02733
761.785	22.7658
761.968	28.80103
762.15	32.44756
762.333	19.98063
762.515	23.92297
762.698	17.36995
762.88	26.54257
763.063	23.24034
763.245	28.90311
763.428	15.68108
763.61	17.29832
763.793	12.98732
763.975	22.72923
764.158	18.63067
764.34	16.06241
764.522	13.88202
764.705	18.15813
764.887	29.51057
765.069	11.50407
765.252	23.89296
765.434	24.44318
765.616	20.71311
765.799	15.07752
765.981	24.21619
766.163	14.01565
766.345	28.92498
766.528	16.25293
766.71	5.99516
766.892	21.63945
767.074	30.21716
767.256	17.24526
767.438	32.8124
767.62	21.72902
767.802	37.98875
767.985	25.436
768.167	34.18735
768.349	17.50575
768.531	25.06939
768.713	23.76504
768.895	28.05007
769.077	24.06842
769.259	42.10646
769.441	59.10089
769.623	26.74256
769.804	32.9258
769.986	31.05139
770.168	38.88988
770.35	50.64096
770.532	35.07662
770.714	39.2097
770.896	38.50416
771.077	14.91334
771.259	40.9418
771.441	34.02101
771.623	41.87957
771.804	57.7805
771.986	15.58441
772.168	25.08145
772.35	41.13605
772.531	58.63572
772.713	34.35309
772.894	45.496
773.076	33.45518
773.258	26.47068
773.439	48.42896
773.621	52.70118
773.802	22.69941
773.984	27.20189
774.166	36.48146
774.347	50.93826
774.529	44.02191
774.71	12.89963
774.891	31.23196
775.073	27.37488
775.254	46.55238
775.436	26.02616
775.617	60.44636
775.799	27.86417
775.98	48.29547
776.161	53.42839
776.343	55.44457
776.524	33.11396
776.705	31.7503
776.886	15.61629
777.068	34.98709
777.249	84.62105
777.43	56.78999
777.611	21.34144
777.793	30.14829
777.974	57.01062
778.155	27.50361
778.336	20.94871
778.517	61.9335
778.698	24.8093
778.879	12.4608
779.061	4.3786
779.242	39.48024
779.423	39.19683
779.604	26.88814
779.785	30.88006
779.966	36.06387
780.147	48.07732
780.328	46.31334
780.509	68.30942
780.69	46.58193
780.871	27.19843
781.051	18.44477
781.232	35.02107
781.413	36.05175
781.594	30.13744
781.775	28.58169
781.956	26.70047
782.137	11.63624
782.317	27.19279
782.498	35.69483
782.679	35.58998
782.86	38.47523
783.04	24.5698
783.221	35.62521
783.402	58.29124
783.583	31.86051
783.763	44.42707
783.944	27.05014
784.124	18.8703
784.305	56.91284
784.486	43.04001
784.666	32.27284
784.847	16.83231
785.027	78.05651
785.208	25.53718
785.388	25.15146
785.569	25.09376
785.749	30.50381
785.93	28.1177
786.11	17.42674
786.291	40.13812
786.471	38.84114
786.652	46.20238
786.832	32.082
787.012	37.78048
787.193	20.15561
787.373	33.86779
787.553	27.51763
787.734	36.23488
787.914	28.30024
788.094	46.28069
788.275	36.7869
788.455	28.76576
788.635	20.54701
788.815	36.5581
788.995	21.23503
789.176	17.90354
789.356	25.15076
789.536	30.92573
789.716	39.24756
789.896	25.04892
790.076	27.1441
790.256	38.00936
790.436	10.18056
790.616	20.70587
790.796	37.60936
790.976	28.13822
791.156	24.9208
791.336	41.17293
791.516	39.12599
791.696	30.20713
791.876	17.57894
792.056	35.80965
792.236	47.53329
792.416	43.1391
792.596	38.58739
792.776	40.29296
792.956	42.35019
793.135	54.70584
793.315	18.75075
793.495	47.1952
793.675	43.29015
793.854	42.64262
794.034	47.72604
794.214	20.23044
794.394	44.33469
794.573	48.60657
794.753	33.63173
794.933	23.41897
795.112	35.72594
795.292	46.8465
795.472	57.4116
795.651	19.60347
795.831	32.54424
796.01	29.3295
796.19	30.04349
796.369	32.24539
796.549	38.53658
796.728	29.85837
796.908	18.86805
797.087	20.41761
797.267	30.62188
797.446	21.14442
797.626	38.14413
797.805	38.5722
797.984	23.91403
798.164	42.80001
798.343	22.47629
798.522	36.54007
798.702	34.61489
798.881	20.01298
799.06	29.89298
799.239	12.86787
799.419	23.64872
799.598	55.55594
799.777	38.92484
799.956	47.99533
800.136	29.22916
800.315	23.49421
800.494	36.86367
800.673	45.90058
800.852	41.24343
801.031	47.56128
801.21	40.86848
801.389	26.6043
801.568	36.73496
801.747	58.87587
801.926	31.41821
802.105	50.2675
802.284	27.65925
802.463	53.08908
802.642	37.47881
802.821	36.11666
803	50.58671
803.179	46.01406
803.358	49.27173
803.537	26.27852
803.716	33.98782
803.895	26.48614
804.073	31.92273
804.252	24.59645
804.431	39.87867
804.61	32.73429
804.789	45.3473
804.967	26.92582
805.146	26.21399
805.325	63.04546
805.503	39.7565
805.682	18.62496
805.861	78.27984
806.039	51.14642
806.218	26.80021
806.397	36.4461
806.575	33.48712
806.754	37.28076
806.932	22.82737
807.111	48.317
807.289	45.65509
807.468	35.73145
807.646	46.89663
807.825	40.05083
808.003	37.78771
808.182	46.87608
808.36	35.56504
808.539	25.001
808.717	54.61148
808.895	26.74541
809.074	37.61335
809.252	33.79477
809.43	42.98358
809.609	51.56885
809.787	57.88205
809.965	29.65684
810.144	34.53142
810.322	30.67143
810.5	42.64461
810.678	29.17014
810.856	66.10902
811.035	48.59637
811.213	45.17796
811.391	53.09639
811.569	36.68731
811.747	88.21401
811.925	51.17338
812.103	27.19561
812.281	33.2315
812.459	61.0504
812.637	56.56426
812.816	47.36924
812.994	66.12633
813.171	53.94565
813.349	44.64216
813.527	51.40057
813.705	55.30337
813.883	74.33728
814.061	48.70013
814.239	62.84357
814.417	68.28413
814.595	43.81359
814.773	41.21293
814.95	36.3644
815.128	44.76499
815.306	38.68835
815.484	32.12838
815.662	25.09553
815.839	22.96639
816.017	30.8818
816.195	50.67236
816.372	32.2101
816.55	49.86667
816.728	62.0182
816.905	33.30951
817.083	63.24808
817.261	37.4436
817.438	81.61745
817.616	64.86592
817.793	29.97289
817.971	48.04296
818.148	46.57708
818.326	55.05368
818.503	42.73181
818.681	61.40386
818.858	35.10825
819.036	36.10502
819.213	41.47811
819.391	28.13331
819.568	28.77397
819.745	25.47129
819.923	47.49279
820.1	33.8981
820.277	27.05746
820.455	32.65836
820.632	35.47738
820.809	38.74368
820.986	22.39184
821.164	18.4278
821.341	14.93599
821.518	26.60788
821.695	17.63997
821.872	15.05165
822.05	12.35532
822.227	8.55527
822.404	9.19331
822.581	11.77741
822.758	8.5901
822.935	8.64906
823.112	10.26824
823.289	7.34489
823.466	10.3403
823.643	9.39224
823.82	12.01151
823.997	9.9722
824.174	12.41319
824.351	19.10181
824.528	17.3877
824.705	15.26317
824.882	17.17074
825.059	24.76685
825.236	15.74054
825.412	16.99602
825.589	22.64144
825.766	35.70727
825.943	19.42143
826.12	24.13565
826.296	15.41936
826.473	21.89425
826.65	22.07396
826.827	27.38437
827.003	17.33095
827.18	19.60698
827.357	22.33128
827.533	18.59935
827.71	8.31065
827.887	15.43276
828.063	18.48531
828.24	14.46964
828.416	21.68112
828.593	17.06833
828.769	25.76676
828.946	27.45266
829.122	27.67196
829.299	27.34456
829.475	15.45892
829.652	25.44244
829.828	45.80491
830.005	27.65204
830.181	41.03331
830.357	28.06402
830.534	41.86924
830.71	30.83753
830.886	41.16736
831.063	39.29965
831.239	51.28272
831.415	24.00957
831.592	53.48543
831.768	31.43576
831.944	27.73032
832.12	59.33473
832.296	57.73677
832.473	43.89372
832.649	29.46552
832.825	48.12124
833.001	25.54747
833.177	39.76078
833.353	36.61175
833.529	19.84522
833.705	32.41441
833.881	19.76219
834.058	18.6874
834.234	20.5412
834.41	21.04149
834.586	15.35474
834.761	19.57688
834.937	22.95945
835.113	23.45399
835.289	19.00276
835.465	22.8322
835.641	20.45903
835.817	23.6937
835.993	43.18247
836.169	17.95785
836.344	32.1032
836.52	36.20522
836.696	35.37444
836.872	26.22238
837.048	86.54297
837.223	29.38125
837.399	59.64928
837.575	47.73161
837.75	44.67842
837.926	67.5575
838.102	97.73506
838.277	74.07944
838.453	103.90666
838.628	108.50521
838.804	37.01575
838.98	92.99511
839.155	47.1916
839.331	66.48028
839.506	44.70799
839.682	46.64229
839.857	65.82032
840.033	78.28725
840.208	31.61124
840.384	15.08426
840.559	36.11706
840.734	55.30971
840.91	74.01732
841.085	43.79047
841.26	40.96182
841.436	37.60988
841.611	37.01103
841.786	57.51041
841.962	78.15602
842.137	50.62448
842.312	26.45328
842.487	37.55805
842.663	32.20118
842.838	40.66363
843.013	145.9588
843.188	65.22259
843.363	73.82073
843.538	118.8815
843.714	120.90134
843.889	120.63602
844.064	132.22655
844.239	108.00521
844.414	131.10184
844.589	86.51719
844.764	157.20918
844.939	155.21185
845.114	173.24594
845.289	161.7501
845.464	218.28904
845.639	146.93941
845.814	70.01211
845.989	84.25743
846.163	107.91487
846.338	111.22484
846.513	158.82363
846.688	99.90531
846.863	106.88906
847.038	92.02525
847.212	106.42748
847.387	109.79694
847.562	111.13993
847.737	142.31105
847.911	50.34677
848.086	64.23325
848.261	231.89452
848.435	104.42401
848.61	148.65068
848.785	72.39274
848.959	156.93524
849.134	212.48404
849.308	220.01156
849.483	111.76271
849.658	182.6565
849.832	95.11229
850.007	82.39879
850.181	245.88684
850.356	90.03242
850.53	232.56724
850.705	71.31321
850.879	34.93028
851.053	104.26124
851.228	95.67985
851.402	125.85957
851.577	159.90716
851.751	186.30427
851.925	122.68347
852.099	53.14754
852.274	77.74428
852.448	110.39139
852.622	150.78915
852.797	109.946
852.971	107.90312
853.145	111.25514
853.319	348.07208
853.493	171.99842
853.668	91.68979
853.842	215.28513
854.016	174.81977
854.19	204.52571
854.364	123.13821
854.538	136.43605
854.712	175.75766
854.886	104.36721
855.06	97.58662
855.234	42.05027
855.408	187.65464
855.582	157.93669
855.756	161.31467
855.93	211.83834
856.104	143.00584
856.278	163.85241
856.452	115.59578
856.626	155.49404
856.8	259.73513
856.973	149.01707
857.147	135.43041
857.321	146.42666
857.495	166.54577
857.669	114.75193
857.842	100.83859
858.016	173.08636
858.19	77.60381
858.364	282.41955
858.537	100.55341
858.711	125.5956
858.885	104.83146
859.058	91.28557
859.232	45.92024
859.405	50.14785
859.579	166.22187
859.753	137.47089
859.926	84.31119
860.1	61.74343
860.273	116.45922
860.447	195.63819
860.62	105.641
860.794	236.52806
860.967	132.02594
861.141	183.31484
861.314	258.85977
861.487	151.09717
861.661	199.39034
861.834	204.33899
862.008	178.34514
862.181	121.56867
862.354	132.55218
862.528	147.76314
862.701	103.79705
862.874	67.74716
863.047	110.49093
863.221	101.24698
863.394	51.69378
863.567	202.62336
863.74	41.73178
863.913	165.8227
864.087	140.86035
864.26	171.41137
864.433	121.09474
864.606	221.21342
864.779	126.07922
864.952	53.46902
865.125	99.64651
865.298	116.01817
865.471	119.59323
865.644	250.6206
865.817	205.5398
865.99	172.88031
866.163	187.73535
866.336	104.83112
866.509	120.13724
866.682	103.71103
866.855	196.89322
867.028	77.74114
867.2	151.40007
867.373	42.73698
867.546	134.44375
867.719	263.48716
867.892	159.27976
868.064	85.44103
868.237	146.84362
868.41	126.38046
868.583	68.33003
868.755	76.60853
868.928	118.75089
869.101	266.97067
869.273	190.15462
869.446	156.57101
869.619	188.87813
869.791	118.37382
869.964	185.86646
870.136	171.39928
870.309	129.21419
870.481	136.17496
870.654	64.34757
870.826	128.73824
870.999	104.37615
871.171	175.70025
871.344	101.42384
871.516	122.84685
871.689	90.10784
871.861	134.39336
872.033	87.56218
872.206	110.8436
872.378	180.20481
872.55	109.67348
872.723	61.43594
872.895	116.96291
873.067	184.92779
873.24	197.55701
873.412	104.70075
873.584	113.6357
873.756	112.38946
873.928	145.2784
874.101	145.13006
874.273	158.5067
874.445	50.36088
874.617	72.40503
874.789	137.23096
874.961	99.3899
875.133	148.53624
875.305	124.46784
875.477	83.90151
875.649	65.19389
875.821	83.12506
875.993	222.18412
876.165	82.19562
876.337	142.67762
876.509	109.76007
876.681	139.80831
876.853	137.828
877.025	140.7878
877.197	88.28256
877.369	77.19326
877.541	175.40898
877.712	41.45815
877.884	78.1553
878.056	162.61674
878.228	78.9451
878.4	151.38214
878.571	78.95223
878.743	55.12668
878.915	141.98669
879.086	74.7891
879.258	101.56653
879.43	89.87589
879.601	78.06632
879.773	83.34363
879.945	17.84322
880.116	32.83801
880.288	19.41209
880.459	23.82028
880.631	15.82208
880.802	20.12013
880.974	18.67088
881.145	11.44329
881.317	17.28004
881.488	11.70807
881.66	13.44513
881.831	11.60401
882.002	18.1299
882.174	11.43488
882.345	16.29945
882.517	6.56267
882.688	19.16016
882.859	16.35671
883.03	28.55037
883.202	25.57636
883.373	20.83653
883.544	20.66777
883.715	42.22061
883.887	32.56817
884.058	26.67407
884.229	40.47621
884.4	42.38232
884.571	49.05291
884.742	40.94586
884.914	44.30341
885.085	69.27392
885.256	89.98232
885.427	70.86237
885.598	86.46696
885.769	91.56913
885.94	85.0607
886.111	52.56538
886.282	106.63973
886.453	83.38262
886.624	56.17614
886.795	105.9839
886.966	88.68447
887.136	113.49377
887.307	76.48526
887.478	148.37239
887.649	128.67815
887.82	134.59112
887.991	98.2316
888.161	144.11489
888.332	137.65008
888.503	70.6529
888.674	190.78756
888.844	203.8208
889.015	161.93632
889.186	75.35944
889.356	194.3591
889.527	66.28734
889.698	340.76991
889.868	99.10716
890.039	139.91711
890.209	121.15449
890.38	168.26505
890.551	137.22578
890.721	205.49938
890.892	162.65158
891.062	112.61069
891.233	150.26578
891.403	106.9747
891.574	79.72601
891.744	105.44572
891.914	154.92961
892.085	129.6585
892.255	42.99697
892.425	195.02887
892.596	158.86944
892.766	142.21286
892.936	209.94732
893.107	171.95898
893.277	92.50662
893.447	64.62537
893.618	44.29514
893.788	107.64951
893.958	48.3299
894.128	54.94415
894.298	67.08344
894.468	90.61287
894.639	39.92267
894.809	24.40015
894.979	44.57085
895.149	52.03006
895.319	42.2552
895.489	62.9255
895.659	77.05262
895.829	49.7795
895.999	51.80165
896.169	35.74195
896.339	44.34701
896.509	102.26762
896.679	119.35167
896.849	109.00325
897.019	163.25967
897.189	120.31904
897.358	104.03041
897.528	160.49006
897.698	52.61213
897.868	152.58543
898.038	262.85871
898.208	238.92039
898.377	76.25007
898.547	247.58304
898.717	399.1476
898.886	150.14629
899.056	234.40043
899.226	375.35139
899.395	211.16001
899.565	288.42498
899.735	186.16799
899.904	305.0679
900.074	272.93462
900.244	112.0383
900.413	502.36914
900.583	109.53519
900.752	181.24772
900.922	297.5942
901.091	20.98907
901.261	258.63238
901.43	239.75
901.599	245.56405
901.769	555.05314
901.938	290.13074
902.108	253.41779
902.277	349.44543
902.446	89.77641
902.616	114.56205
902.785	154.84783
902.954	278.1013
903.124	179.53698
903.293	146.88562
903.462	74.27189
903.631	110.24432
903.801	78.05193
903.97	39.56229
904.139	72.62119
904.308	52.1684
904.477	40.35251
904.646	22.36847
904.816	38.571
904.985	58.73065
905.154	91.35549
