Data from WindowProjectSample_Transmission__35__00035.txt Node

Date: Sat May 03 15:41:53 EDT 2025
User: jessi
Spectrometer: SR400872
Trigger mode: 0
Integration Time (sec): 5.000010E-1
Scans to average: 6
Electric dark correction enabled: true
Nonlinearity correction enabled: true
Boxcar width: 0
XAxis mode: Wavelengths
Number of Pixels in Spectrum: 3648
>>>>>Begin Spectral Data<<<<<
184.909	18863.28921
185.132	2644.77172
185.355	23936.99155
185.578	-8223.22656
185.801	428.06827
186.024	-1520.89856
186.247	842.79555
186.47	2122.47906
186.693	-147.64651
186.916	-2518.86527
187.139	-2700.47243
187.362	1619.62981
187.585	2744.16304
187.808	-3508.33874
188.031	-321.76744
188.254	-1317.97034
188.476	-781.15556
188.699	2491.82055
188.922	-930.33693
189.145	-10492.05735
189.368	-510.03152
189.591	-1283.50039
189.813	-1681.23188
190.036	1257.76967
190.259	1945.53788
190.482	575.29107
190.705	11150.04088
190.927	-1132.75156
191.15	3717.37863
191.373	2425.31183
191.595	-2568.8817
191.818	2491.75701
192.041	-339.01365
192.263	2718.88359
192.486	1847.33759
192.709	-5426.01454
192.931	3125.6111
193.154	-6317.65214
193.377	188158.27979
193.599	1504.72585
193.822	1755.69901
194.044	-2255.41621
194.267	472.37888
194.489	-321.25871
194.712	1418.02385
194.934	3422.08603
195.157	-15820.81617
195.379	767.53606
195.602	2144.15206
195.824	1925.39908
196.047	2108.28445
196.269	3072.47213
196.492	3388.13074
196.714	2933.79494
196.936	1227.57133
197.159	1537.82148
197.381	-2341.19716
197.604	-1333.34653
197.826	6932.92421
198.048	3202.03217
198.271	4396.00384
198.493	2094.70335
198.715	-5462.38914
198.938	-576.31853
199.16	1832.94125
199.382	1482.68391
199.604	-649.20397
199.827	9848.66828
200.049	994.3463
200.271	-3203.70071
200.493	-58018.23047
200.715	2264.30213
200.938	6750.28901
201.16	-7561.84243
201.382	-3204.75757
201.604	-2118.67395
201.826	7054.56448
202.048	868.62239
202.27	-16883.43987
202.492	4796.2597
202.715	-1099.49192
202.937	4662.30405
203.159	-2223.89613
203.381	944.30905
203.603	-3480.64375
203.825	-2681.53328
204.047	3321.25866
204.269	-2315.35984
204.491	2202.71213
204.713	1973.46414
204.935	16449.2881
205.156	1777.16849
205.378	-7857.06385
205.6	-4532.47044
205.822	9390.41834
206.044	-528.49423
206.266	4106.58192
206.488	1115.61571
206.71	30909.57136
206.932	2396.39203
207.153	-4731.25102
207.375	-1964.01128
207.597	8753.49746
207.819	4352.3134
208.041	2259.00869
208.262	-2929.80342
208.484	-1317.8084
208.706	-3131.13916
208.927	32184.99053
209.149	901.64093
209.371	-6600.30444
209.593	1278.99961
209.814	5203.70459
210.036	-2524.8503
210.258	-5751.61849
210.479	-1315.21118
210.701	1009.14935
210.922	6830.5563
211.144	-1163.76381
211.366	-6210.2749
211.587	-624.49132
211.809	9720.8381
212.03	-1271.56434
212.252	-1484.17147
212.473	816.56605
212.695	-2289.47396
212.916	2779.2393
213.138	3892.86449
213.359	-1934.09217
213.581	6721.31285
213.802	-1873.21544
214.024	17240.3199
214.245	-3266.0681
214.466	-769.88192
214.688	1802.20157
214.909	956.62903
215.131	-95520.19335
215.352	1826.30238
215.573	2602.91863
215.795	3115.37378
216.016	4402.78506
216.237	-660.97388
216.459	7130.13773
216.68	106016.77824
216.901	-85068.90543
217.122	2019.00864
217.344	5876.63598
217.565	-62690.92839
217.786	1530.63014
218.007	1843.3348
218.228	-1210.43055
218.45	-1217.34429
218.671	-1212.95878
218.892	1196.07945
219.113	-17930.96322
219.334	-309.68788
219.555	-5193.0777
219.776	1530.43979
219.997	3429.77652
220.219	1117.30071
220.44	2375.56449
220.661	-2997.85324
220.882	3392.4099
221.103	-1203.18796
221.324	935.03595
221.545	2263.22065
221.766	-6020.14761
221.987	3502.33916
222.208	-1836.72721
222.429	3497.40101
222.65	-103.81196
222.87	-529.37412
223.091	7689.74084
223.312	2981.68003
223.533	7391.87898
223.754	1874.28987
223.975	1365.54771
224.196	-11259.53362
224.417	1071.07255
224.637	1108.56692
224.858	-572.31332
225.079	7241.00318
225.3	581.31533
225.521	2065.93055
225.741	1602.35851
225.962	768.94297
226.183	393.02152
226.404	703.51201
226.624	617.9
226.845	386.57083
227.066	453.26095
227.286	196.23919
227.507	99.39128
227.728	84.51887
227.948	131.65012
228.169	43.77523
228.389	48.5852
228.61	26.46489
228.831	35.19451
229.051	4.20529
229.272	23.34305
229.492	31.07533
229.713	8.91771
229.933	22.46123
230.154	17.97325
230.374	34.2137
230.595	23.26193
230.815	15.72647
231.036	22.86746
231.256	-4.21806
231.477	42.51767
231.697	25.55406
231.917	26.02799
232.138	39.41235
232.358	76.38578
232.579	65.21332
232.799	10.82174
233.019	67.22617
233.24	80.36748
233.46	25.65161
233.68	46.77484
233.901	31.12936
234.121	20.25649
234.341	7.56397
234.561	-4.06397
234.782	17.81361
235.002	47.74299
235.222	1.68312
235.442	42.67318
235.662	21.03057
235.883	45.84597
236.103	38.3097
236.323	27.66144
236.543	18.12276
236.763	30.01651
236.983	30.98913
237.203	34.04702
237.423	44.46188
237.643	64.98914
237.864	51.74023
238.084	16.45702
238.304	22.30445
238.524	35.72172
238.744	29.57016
238.964	47.18355
239.184	44.35775
239.404	47.4048
239.624	23.86045
239.843	39.85023
240.063	24.94554
240.283	16.83592
240.503	17.06333
240.723	16.80956
240.943	9.22246
241.163	13.36933
241.383	10.25609
241.603	5.26157
241.822	6.46497
242.042	4.51915
242.262	6.21959
242.482	6.62399
242.702	8.91396
242.921	3.00538
243.141	5.88069
243.361	5.02151
243.581	7.59952
243.8	6.30801
244.02	4.17259
244.24	8.06701
244.459	7.69882
244.679	14.84901
244.899	8.91578
245.118	11.22717
245.338	9.6267
245.558	11.39467
245.777	6.6299
245.997	7.61951
246.216	7.38441
246.436	4.51339
246.655	3.43005
246.875	2.69104
247.094	4.77922
247.314	1.57948
247.533	2.92575
247.753	3.60597
247.972	2.82644
248.192	1.05267
248.411	1.86731
248.631	3.28691
248.85	4.18053
249.07	2.91305
249.289	5.68464
249.508	4.12842
249.728	6.88742
249.947	6.95343
250.166	6.94495
250.386	3.8697
250.605	5.61194
250.824	8.13723
251.044	6.3817
251.263	20.83482
251.482	11.21809
251.701	10.1102
251.921	0.14393
252.14	3.08089
252.359	3.41905
252.578	8.22041
252.798	2.91711
253.017	7.2533
253.236	4.09088
253.455	5.5049
253.674	10.03515
253.893	5.14772
254.112	6.4585
254.331	9.59585
254.551	7.96068
254.77	3.87233
254.989	11.46671
255.208	10.68095
255.427	11.5505
255.646	10.09676
255.865	18.00239
256.084	7.227
256.303	8.28344
256.522	12.00522
256.741	1.96339
256.96	4.00552
257.179	7.94922
257.397	8.33784
257.616	4.46393
257.835	5.09056
258.054	12.30535
258.273	7.74283
258.492	8.67877
258.711	5.54138
258.93	2.27975
259.148	3.24607
259.367	3.47226
259.586	4.54512
259.805	2.15616
260.023	4.20204
260.242	3.43869
260.461	2.38997
260.68	1.5444
260.898	3.97773
261.117	1.38575
261.336	0.93017
261.554	3.33114
261.773	3.22723
261.992	0.85554
262.21	3.16216
262.429	3.76343
262.648	6.2156
262.866	7.3846
263.085	4.78233
263.303	4.15527
263.522	7.83571
263.74	7.9639
263.959	13.0424
264.178	6.40901
264.396	6.09761
264.615	4.12671
264.833	9.81958
265.051	8.58356
265.27	8.4043
265.488	9.47198
265.707	6.16029
265.925	9.45401
266.144	4.15415
266.362	5.26256
266.58	5.29562
266.799	4.21605
267.017	5.43053
267.235	5.00186
267.454	3.05472
267.672	1.79727
267.89	3.93664
268.109	4.05985
268.327	3.93662
268.545	0.94447
268.763	3.72363
268.982	1.59701
269.2	4.28244
269.418	2.63839
269.636	2.19912
269.854	3.81591
270.073	3.20225
270.291	1.86513
270.509	1.45022
270.727	3.7671
270.945	6.27457
271.163	6.39438
271.381	1.67216
271.599	2.67497
271.817	4.56162
272.036	1.6047
272.254	2.8326
272.472	2.36324
272.69	2.23268
272.908	2.12828
273.126	3.9965
273.344	4.79755
273.562	1.86707
273.779	2.43267
273.997	3.33343
274.215	3.96089
274.433	2.94138
274.651	4.08803
274.869	4.08687
275.087	2.553
275.305	3.58228
275.523	2.32497
275.74	2.86203
275.958	4.6901
276.176	7.2431
276.394	2.50316
276.612	2.92708
276.829	2.95097
277.047	2.50953
277.265	2.7779
277.483	3.21568
277.7	3.65986
277.918	3.22617
278.136	5.80629
278.353	3.33999
278.571	1.36202
278.789	4.38332
279.006	1.12831
279.224	2.48972
279.442	4.57476
279.659	3.0414
279.877	2.31111
280.094	5.00222
280.312	1.01499
280.529	3.1216
280.747	0.95719
280.964	2.3105
281.182	5.50809
281.399	2.41125
281.617	3.52603
281.834	2.38187
282.052	1.9881
282.269	2.79151
282.487	2.39575
282.704	1.8174
282.921	2.27823
283.139	2.85238
283.356	3.93327
283.574	3.13337
283.791	1.84353
284.008	4.86194
284.226	2.71168
284.443	2.90417
284.66	3.63836
284.877	3.03951
285.095	2.038
285.312	1.39955
285.529	0.98792
285.746	0.86905
285.964	2.03843
286.181	1.24631
286.398	1.87941
286.615	2.49204
286.832	2.42376
287.05	0.77721
287.267	1.64704
287.484	1.86211
287.701	2.59951
287.918	2.45957
288.135	2.5422
288.352	1.31181
288.569	1.31311
288.786	2.06765
289.003	1.67406
289.22	2.58216
289.437	1.72701
289.654	2.6697
289.871	2.73567
290.088	2.69059
290.305	2.04653
290.522	1.68865
290.739	1.92916
290.956	3.0451
291.173	3.54684
291.39	3.19768
291.607	2.33317
291.824	1.61832
292.04	1.20026
292.257	2.65945
292.474	3.00987
292.691	2.08204
292.908	0.872
293.125	1.76791
293.341	1.00024
293.558	4.68881
293.775	1.8904
293.992	1.99917
294.208	0.63891
294.425	1.13461
294.642	1.65144
294.858	2.58288
295.075	0.82467
295.292	1.74812
295.508	2.26471
295.725	3.55639
295.942	1.88869
296.158	1.45592
296.375	2.27335
296.591	1.78522
296.808	2.22589
297.024	2.75297
297.241	2.77254
297.458	3.23995
297.674	1.26495
297.891	2.85946
298.107	3.03516
298.323	2.37298
298.54	4.38743
298.756	3.05649
298.973	2.39798
299.189	4.99303
299.406	3.53984
299.622	4.84402
299.838	5.34796
300.055	4.90434
300.271	3.70344
300.487	3.61047
300.704	4.4954
300.92	3.99088
301.136	7.46492
301.353	5.88902
301.569	5.17644
301.785	5.69642
302.001	6.35497
302.218	5.94687
302.434	6.52459
302.65	4.9852
302.866	5.80831
303.083	8.1212
303.299	8.60168
303.515	6.50133
303.731	7.43559
303.947	5.87347
304.163	6.58769
304.379	7.32414
304.595	7.45597
304.812	6.83553
305.028	6.52633
305.244	7.01928
305.46	7.79392
305.676	8.34912
305.892	8.88847
306.108	8.19562
306.324	7.56311
306.54	9.44428
306.756	8.1935
306.972	7.81293
307.187	8.10067
307.403	8.71928
307.619	7.45084
307.835	8.74663
308.051	9.45794
308.267	7.24077
308.483	9.93504
308.699	8.82869
308.914	8.89062
309.13	8.67389
309.346	7.96423
309.562	8.40256
309.778	7.97442
309.993	9.45554
310.209	9.76585
310.425	8.33149
310.641	9.68615
310.856	9.16976
311.072	8.9448
311.288	9.72668
311.503	10.34689
311.719	8.56973
311.935	8.7836
312.15	10.72386
312.366	10.45694
312.581	10.65693
312.797	10.01292
313.013	10.69127
313.228	9.41443
313.444	9.52462
313.659	9.14276
313.875	10.15558
314.09	9.86619
314.306	10.59986
314.521	10.44677
314.737	10.64061
314.952	10.11884
315.168	10.25378
315.383	10.43863
315.599	9.69399
315.814	10.20594
316.029	10.76615
316.245	9.67907
316.46	8.58602
316.675	11.29405
316.891	12.14846
317.106	13.19044
317.321	10.52005
317.537	11.11434
317.752	11.33811
317.967	11.7296
318.183	9.59133
318.398	10.36453
318.613	11.05512
318.828	12.09281
319.043	11.10445
319.259	10.65622
319.474	11.03254
319.689	11.79864
319.904	9.28087
320.119	12.37117
320.334	11.32908
320.549	11.01413
320.765	12.02157
320.98	11.73749
321.195	11.35804
321.41	11.47124
321.625	11.78716
321.84	12.94363
322.055	12.59891
322.27	11.17948
322.485	10.75663
322.7	12.26126
322.915	12.67375
323.13	11.86418
323.345	13.91848
323.56	13.1661
323.775	12.97696
323.989	13.10678
324.204	12.50205
324.419	13.66429
324.634	11.79206
324.849	12.60975
325.064	15.02238
325.279	14.03305
325.493	13.40805
325.708	13.91519
325.923	12.30292
326.138	13.30505
326.352	14.6817
326.567	14.14083
326.782	12.60736
326.997	13.17737
327.211	14.14218
327.426	13.75093
327.641	13.25288
327.855	12.6638
328.07	14.39519
328.285	15.62424
328.499	13.3154
328.714	14.04182
328.928	13.76597
329.143	13.9807
329.358	15.11109
329.572	15.00879
329.787	15.52114
330.001	16.71449
330.216	12.4435
330.43	16.76195
330.645	15.15237
330.859	15.18795
331.074	13.25941
331.288	14.5577
331.503	16.24204
331.717	13.67235
331.931	14.88838
332.146	15.34336
332.36	16.91751
332.575	15.22646
332.789	15.10954
333.003	15.63757
333.218	16.18352
333.432	15.66966
333.646	16.63679
333.86	17.66492
334.075	17.19546
334.289	15.24592
334.503	14.13584
334.717	16.49686
334.932	15.80311
335.146	15.96803
335.36	14.29464
335.574	15.61882
335.788	15.39447
336.003	16.15195
336.217	16.51449
336.431	16.02736
336.645	15.79991
336.859	15.65446
337.073	17.04978
337.287	17.63043
337.501	16.30291
337.715	18.80014
337.929	18.42516
338.143	17.04709
338.357	17.82973
338.571	17.76928
338.785	18.73382
338.999	17.29126
339.213	17.23148
339.427	16.86433
339.641	18.59525
339.855	17.0639
340.069	16.83751
340.283	18.52198
340.497	18.9489
340.711	18.64534
340.924	18.22449
341.138	17.63707
341.352	17.30023
341.566	18.2961
341.78	17.44939
341.993	17.99519
342.207	18.06698
342.421	19.1874
342.635	18.78466
342.848	18.67493
343.062	16.80947
343.276	18.65646
343.49	20.78631
343.703	18.69674
343.917	20.08181
344.131	20.67993
344.344	18.63467
344.558	19.05751
344.771	18.35065
344.985	20.63697
345.199	21.29852
345.412	20.40414
345.626	20.71427
345.839	18.64278
346.053	19.26091
346.266	19.39755
346.48	20.52409
346.693	20.45434
346.907	20.62861
347.12	19.3974
347.334	20.24705
347.547	20.61395
347.76	20.13244
347.974	21.03761
348.187	20.36943
348.401	20.26816
348.614	19.54962
348.827	20.16293
349.041	20.83863
349.254	19.35392
349.467	20.92544
349.681	20.29418
349.894	20.19228
350.107	22.12836
350.32	23.26308
350.534	20.44804
350.747	21.25111
350.96	20.70462
351.173	20.84125
351.386	21.26594
351.6	21.09438
351.813	21.48649
352.026	21.44422
352.239	21.01975
352.452	21.05648
352.665	22.90216
352.878	21.25342
353.092	23.72511
353.305	22.65207
353.518	22.29646
353.731	21.02078
353.944	23.28338
354.157	21.73511
354.37	22.45007
354.583	21.2244
354.796	21.85633
355.009	23.33539
355.222	23.01909
355.435	22.81592
355.647	24.02889
355.86	22.568
356.073	23.10502
356.286	22.50482
356.499	23.98521
356.712	23.97
356.925	23.83239
357.138	24.30661
357.35	22.76041
357.563	22.99201
357.776	23.89926
357.989	23.83495
358.201	24.13146
358.414	24.25569
358.627	24.84225
358.84	23.83967
359.052	23.14218
359.265	23.28578
359.478	24.67886
359.69	22.15344
359.903	25.25798
360.116	24.88006
360.328	23.11603
360.541	24.96489
360.753	24.27121
360.966	24.3888
361.179	24.77848
361.391	24.5729
361.604	24.29059
361.816	24.5055
362.029	24.81797
362.241	24.41835
362.454	24.93354
362.666	24.33747
362.879	25.36174
363.091	24.62339
363.304	24.71958
363.516	24.55467
363.728	24.36101
363.941	25.34048
364.153	25.4494
364.366	24.08341
364.578	24.74968
364.79	25.61827
365.003	26.04318
365.215	25.05659
365.427	26.25649
365.639	26.34178
365.852	25.84793
366.064	26.98848
366.276	25.86763
366.488	25.90347
366.701	25.70044
366.913	25.48857
367.125	26.12722
367.337	25.38644
367.549	25.70201
367.762	25.86599
367.974	25.93513
368.186	26.12528
368.398	27.11823
368.61	26.41018
368.822	26.43561
369.034	26.05293
369.246	27.19405
369.458	28.48475
369.67	25.79576
369.882	27.50479
370.094	25.12841
370.306	27.48399
370.518	26.66226
370.73	26.31243
370.942	26.6411
371.154	27.05309
371.366	27.03816
371.578	27.62463
371.79	27.26355
372.002	27.994
372.214	29.17289
372.425	27.1292
372.637	28.74993
372.849	27.56746
373.061	25.73686
373.273	27.63314
373.484	27.80707
373.696	28.02576
373.908	26.08337
374.12	27.80415
374.331	28.04442
374.543	26.86796
374.755	26.95708
374.967	27.81863
375.178	28.87133
375.39	27.80713
375.602	28.14028
375.813	26.56971
376.025	27.47133
376.236	27.97532
376.448	28.47707
376.66	27.96873
376.871	28.35651
377.083	29.04885
377.294	29.59781
377.506	27.81804
377.717	29.15929
377.929	28.58899
378.14	28.26707
378.352	28.9331
378.563	29.31252
378.775	29.66768
378.986	27.56094
379.197	28.74505
379.409	28.08462
379.62	29.30806
379.832	29.35189
380.043	28.71648
380.254	29.52164
380.466	28.21462
380.677	31.29609
380.888	30.64128
381.1	31.46429
381.311	31.60833
381.522	30.03565
381.733	31.12584
381.945	29.25375
382.156	28.65297
382.367	29.24344
382.578	31.79546
382.789	31.79315
383.001	28.97718
383.212	31.23613
383.423	30.93785
383.634	30.48131
383.845	30.72229
384.056	29.67956
384.267	30.23523
384.478	30.0555
384.69	29.42825
384.901	30.74843
385.112	30.25474
385.323	31.42343
385.534	30.46671
385.745	30.92762
385.956	30.57992
386.167	29.8547
386.378	31.14599
386.588	30.22255
386.799	29.86487
387.01	29.63837
387.221	31.16751
387.432	30.65496
387.643	31.86051
387.854	30.80762
388.065	30.49308
388.275	30.86532
388.486	30.34617
388.697	31.01325
388.908	30.44458
389.119	31.87853
389.329	32.11232
389.54	31.31555
389.751	31.26296
389.962	32.14967
390.172	31.16196
390.383	31.17617
390.594	30.73981
390.804	30.77379
391.015	30.88552
391.226	31.60703
391.436	31.92014
391.647	31.7332
391.858	31.99975
392.068	30.41563
392.279	31.01286
392.489	32.20219
392.7	32.28156
392.91	31.20796
393.121	31.28576
393.331	32.05904
393.542	32.76916
393.752	32.39539
393.963	32.30788
394.173	32.45914
394.384	32.43816
394.594	32.0601
394.804	31.27927
395.015	32.06213
395.225	32.57357
395.436	31.22076
395.646	32.26943
395.856	31.78881
396.067	30.93342
396.277	32.73619
396.487	32.6505
396.697	32.71434
396.908	32.99658
397.118	32.28786
397.328	32.32253
397.538	32.99219
397.749	32.18087
397.959	33.25456
398.169	32.79103
398.379	31.59105
398.589	32.72762
398.8	33.02281
399.01	33.12694
399.22	32.34892
399.43	33.96085
399.64	32.62549
399.85	32.92914
400.06	33.16364
400.27	32.70224
400.48	32.70766
400.69	33.58666
400.9	32.52832
401.11	31.90729
401.32	33.30186
401.53	32.64981
401.74	33.97106
401.95	33.04886
402.16	32.77949
402.37	33.18585
402.58	32.97608
402.79	33.15147
403	33.80881
403.209	32.70633
403.419	33.96184
403.629	32.85392
403.839	33.96502
404.049	34.01775
404.258	33.07248
404.468	33.33994
404.678	34.10312
404.888	34.41735
405.097	33.60392
405.307	33.18534
405.517	34.10332
405.727	33.88086
405.936	33.28953
406.146	33.46487
406.356	34.39255
406.565	33.56126
406.775	33.54545
406.984	33.36394
407.194	35.18885
407.404	33.61634
407.613	34.26484
407.823	34.15633
408.032	34.55971
408.242	34.4824
408.451	33.19452
408.661	33.57688
408.87	35.09893
409.08	33.1639
409.289	34.6038
409.499	34.22793
409.708	33.88687
409.918	32.76953
410.127	34.48547
410.336	35.19083
410.546	34.58927
410.755	33.76389
410.964	33.77309
411.174	33.24182
411.383	34.47682
411.592	34.21814
411.802	33.73434
412.011	34.74959
412.22	34.06273
412.429	35.74836
412.639	35.43514
412.848	34.79098
413.057	35.62639
413.266	34.89463
413.475	34.65611
413.685	34.82307
413.894	34.98456
414.103	35.16613
414.312	34.7482
414.521	34.27458
414.73	34.68514
414.939	36.05711
415.148	35.04897
415.357	35.10193
415.566	34.77308
415.776	34.64483
415.985	34.68
416.194	35.32945
416.403	36.12819
416.611	34.37656
416.82	34.76663
417.029	35.29836
417.238	34.61056
417.447	34.94463
417.656	35.18579
417.865	35.52014
418.074	36.25372
418.283	38.41977
418.492	40.6472
418.7	40.14333
418.909	44.10113
419.118	42.66301
419.327	43.90991
419.536	43.95138
419.744	45.40734
419.953	47.85867
420.162	49.12013
420.371	49.59105
420.579	52.24962
420.788	52.90454
420.997	53.3916
421.205	54.92732
421.414	54.03252
421.623	54.385
421.831	53.47756
422.04	53.6405
422.249	51.63212
422.457	51.46307
422.666	49.512
422.874	50.60592
423.083	51.20878
423.291	51.69135
423.5	52.65477
423.708	54.04128
423.917	54.88412
424.125	53.83432
424.334	54.21299
424.542	56.092
424.751	55.41783
424.959	53.9716
425.167	53.20397
425.376	52.70713
425.584	48.76125
425.793	47.66884
426.001	45.52742
426.209	43.50555
426.418	41.32264
426.626	38.67159
426.834	37.78553
427.042	36.43021
427.251	35.76066
427.459	36.54616
427.667	36.31468
427.875	35.1284
428.084	35.6253
428.292	36.90861
428.5	36.62769
428.708	35.54836
428.916	35.98048
429.124	36.37304
429.333	36.35105
429.541	36.39217
429.749	36.64555
429.957	36.34104
430.165	37.80177
430.373	35.45397
430.581	36.44758
430.789	37.42977
430.997	36.36802
431.205	35.75258
431.413	36.7301
431.621	36.46097
431.829	37.19959
432.037	36.56833
432.245	36.79989
432.453	37.43845
432.661	36.93615
432.869	39.15777
433.076	38.48993
433.284	39.4252
433.492	40.60021
433.7	41.03166
433.908	39.51795
434.116	40.01464
434.323	38.69548
434.531	38.68937
434.739	37.68233
434.947	37.42719
435.154	37.61672
435.362	36.97236
435.57	36.82854
435.778	36.65187
435.985	37.11899
436.193	36.87924
436.401	37.72103
436.608	37.07532
436.816	37.22981
437.023	38.28179
437.231	38.53237
437.439	37.60413
437.646	37.63291
437.854	37.6124
438.061	38.14854
438.269	38.15487
438.476	38.47402
438.684	38.83052
438.891	40.39882
439.099	40.58734
439.306	40.94825
439.514	41.22692
439.721	44.80001
439.929	45.20694
440.136	46.90268
440.343	47.79312
440.551	48.19052
440.758	49.73266
440.965	47.23517
441.173	46.9249
441.38	46.61932
441.587	44.22321
441.795	44.06084
442.002	42.08918
442.209	41.20721
442.416	39.79581
442.624	38.92234
442.831	38.20693
443.038	37.24257
443.245	37.38418
443.452	37.63668
443.66	38.66366
443.867	38.06797
444.074	38.07801
444.281	39.62238
444.488	40.57501
444.695	41.78958
444.902	43.43611
445.109	46.58056
445.316	47.7332
445.523	49.98554
445.73	51.54884
445.937	52.91844
446.144	54.63604
446.351	55.92496
446.558	53.31427
446.765	57.5853
446.972	54.85389
447.179	54.51942
447.386	54.09513
447.593	49.98302
447.8	51.26554
448.007	47.23395
448.214	44.26929
448.42	43.12253
448.627	41.84984
448.834	40.66343
449.041	39.89214
449.248	38.31937
449.454	38.59125
449.661	39.0722
449.868	38.0186
450.075	37.74843
450.281	37.30486
450.488	37.7396
450.695	38.01105
450.901	37.88397
451.108	38.25808
451.315	39.05525
451.521	38.36083
451.728	39.41701
451.935	38.48009
452.141	38.44231
452.348	38.93134
452.554	38.93664
452.761	37.99781
452.967	39.58378
453.174	38.69899
453.38	38.59773
453.587	38.3547
453.793	38.73698
454	39.06831
454.206	39.9189
454.413	39.53148
454.619	39.20116
454.825	38.1953
455.032	39.17747
455.238	39.83686
455.445	38.30922
455.651	38.96511
455.857	38.09831
456.064	38.74454
456.27	38.77076
456.476	38.54785
456.682	38.2322
456.889	39.21372
457.095	39.79833
457.301	40.46687
457.507	39.14492
457.714	39.17272
457.92	39.41967
458.126	38.75331
458.332	39.30148
458.538	40.02461
458.744	42.46026
458.951	45.0634
459.157	49.84382
459.363	50.43621
459.569	52.02155
459.775	52.49451
459.981	54.12401
460.187	54.26914
460.393	52.84357
460.599	51.79981
460.805	49.06771
461.011	45.51945
461.217	42.84128
461.423	39.63676
461.629	39.10895
461.835	39.34553
462.041	39.10492
462.247	40.14402
462.453	39.2674
462.658	39.31651
462.864	40.11885
463.07	39.6522
463.276	39.46935
463.482	39.51924
463.688	40.69235
463.893	39.45051
464.099	39.76161
464.305	40.84858
464.511	39.4413
464.716	39.64227
464.922	40.125
465.128	39.43025
465.333	40.86274
465.539	40.46111
465.745	39.96754
465.95	39.91532
466.156	41.91475
466.362	40.98757
466.567	40.11716
466.773	40.03154
466.978	41.25769
467.184	39.74696
467.389	39.065
467.595	40.63498
467.8	39.82562
468.006	40.81558
468.211	40.81515
468.417	39.63442
468.622	40.75121
468.828	40.63304
469.033	40.72713
469.239	42.35894
469.444	40.15752
469.649	40.82461
469.855	40.51509
470.06	40.88089
470.266	39.85963
470.471	40.93353
470.676	40.62872
470.881	39.7018
471.087	41.63261
471.292	42.16293
471.497	39.3038
471.703	40.30987
471.908	40.12826
472.113	40.65186
472.318	41.46694
472.523	40.03023
472.729	40.9518
472.934	41.13784
473.139	40.70931
473.344	41.25598
473.549	41.84499
473.754	40.43294
473.959	42.48353
474.164	40.42048
474.369	40.53513
474.575	41.28593
474.78	41.00188
474.985	40.3798
475.19	39.59457
475.395	40.64056
475.6	40.78254
475.804	42.17323
476.009	41.08976
476.214	40.77294
476.419	40.69399
476.624	40.12427
476.829	40.6436
477.034	41.62899
477.239	40.79553
477.444	41.30932
477.648	41.62066
477.853	41.38209
478.058	40.7747
478.263	40.90145
478.468	40.16016
478.672	40.69224
478.877	41.88855
479.082	42.44251
479.287	41.27602
479.491	41.19189
479.696	40.33583
479.901	41.70437
480.105	41.60322
480.31	40.9463
480.515	41.21405
480.719	43.00151
480.924	41.33883
481.128	42.32932
481.333	44.19941
481.538	45.5439
481.742	48.74813
481.947	52.74975
482.151	57.47235
482.356	63.57558
482.56	73.45052
482.765	83.58702
482.969	97.36291
483.174	98.45357
483.378	98.45387
483.582	98.45367
483.787	98.45414
483.991	98.45373
484.196	98.45338
484.4	98.4535
484.604	98.45365
484.809	98.45331
485.013	98.45375
485.217	97.31442
485.422	87.7084
485.626	80.19947
485.83	76.78681
486.034	75.81506
486.239	78.68814
486.443	82.2646
486.647	86.15244
486.851	90.46934
487.055	96.43165
487.26	97.53537
487.464	98.08464
487.668	97.79533
487.872	98.23578
488.076	97.95818
488.28	96.8239
488.484	90.77429
488.688	87.10698
488.892	80.63824
489.096	73.96987
489.3	68.89289
489.504	64.16614
489.708	60.54028
489.912	59.6339
490.116	59.20288
490.32	61.33696
490.524	66.76867
490.728	71.5115
490.932	77.05542
491.136	82.25946
491.34	85.39954
491.544	86.77613
491.748	86.52747
491.951	85.55195
492.155	83.15373
492.359	78.94303
492.563	72.48788
492.767	66.26312
492.97	58.76246
493.174	52.29947
493.378	47.70343
493.582	43.54689
493.785	41.70637
493.989	40.68323
494.193	39.37177
494.396	38.21362
494.6	38.74316
494.804	39.19607
495.007	41.45076
495.211	41.49626
495.414	42.01422
495.618	42.06296
495.822	43.27811
496.025	42.67405
496.229	43.36421
496.432	43.96957
496.636	44.71448
496.839	44.96727
497.043	46.28537
497.246	45.31694
497.45	44.95267
497.653	45.28785
497.856	44.18214
498.06	43.19159
498.263	42.54677
498.467	42.26814
498.67	42.79767
498.873	42.66076
499.077	42.44545
499.28	42.53916
499.483	42.94571
499.686	42.99983
499.89	42.6479
500.093	43.19294
500.296	42.50416
500.499	44.17056
500.703	43.10993
500.906	42.92311
501.109	44.04067
501.312	43.04212
501.515	42.97565
501.719	43.2748
501.922	43.7594
502.125	42.79968
502.328	42.87251
502.531	42.73363
502.734	43.09996
502.937	42.21852
503.14	43.24877
503.343	42.70449
503.546	43.29102
503.749	42.97116
503.952	43.60827
504.155	42.82586
504.358	43.56743
504.561	43.32941
504.764	42.36985
504.967	43.24015
505.17	42.95782
505.373	44.38511
505.576	43.14568
505.778	43.46101
505.981	42.60293
506.184	44.04942
506.387	42.23448
506.59	44.47031
506.793	43.97615
506.995	43.70027
507.198	42.25404
507.401	43.77075
507.604	43.89895
507.806	42.98237
508.009	43.2968
508.212	44.02286
508.414	43.11175
508.617	43.08678
508.82	43.68761
509.022	44.42335
509.225	43.85591
509.427	42.70604
509.63	44.11391
509.833	43.32644
510.035	42.95641
510.238	42.35326
510.44	44.10839
510.643	42.26015
510.845	44.64247
511.048	43.7709
511.25	43.33042
511.453	43.55286
511.655	44.08571
511.858	43.38351
512.06	44.12278
512.262	43.75723
512.465	44.51225
512.667	43.35673
512.869	43.02242
513.072	43.52468
513.274	44.01774
513.476	43.84727
513.679	44.27775
513.881	43.03726
514.083	44.8246
514.286	43.5258
514.488	43.18675
514.69	43.16972
514.892	43.03581
515.094	44.22384
515.297	43.48557
515.499	43.8671
515.701	43.14489
515.903	44.75999
516.105	45.02447
516.307	44.36402
516.509	42.7579
516.711	43.10488
516.913	44.02404
517.116	43.66548
517.318	43.77553
517.52	44.27447
517.722	44.64743
517.924	45.18288
518.126	47.68576
518.328	47.77739
518.529	49.00325
518.731	49.45144
518.933	47.01233
519.135	47.06527
519.337	46.91249
519.539	45.0707
519.741	42.8245
519.943	43.41026
520.145	43.45116
520.346	43.98928
520.548	43.39198
520.75	43.51177
520.952	43.5971
521.153	44.14464
521.355	43.96448
521.557	43.28215
521.759	43.77543
521.96	43.95661
522.162	42.85692
522.364	44.622
522.565	43.41985
522.767	44.51937
522.969	44.5818
523.17	44.0936
523.372	44.44236
523.573	43.56273
523.775	44.1306
523.977	43.38004
524.178	45.39355
524.38	43.9758
524.581	44.78621
524.783	44.19596
524.984	47.06125
525.186	48.55865
525.387	50.42544
525.589	51.21136
525.79	52.08091
525.991	52.63406
526.193	53.69293
526.394	52.981
526.596	54.77487
526.797	56.49196
526.998	56.92208
527.2	61.83567
527.401	69.27529
527.602	76.64383
527.803	87.14135
528.005	94.44738
528.206	97.78698
528.407	98.36281
528.608	98.45446
528.81	98.45346
529.011	98.25887
529.212	97.88218
529.413	95.99832
529.614	88.74801
529.815	80.85969
530.017	73.1418
530.218	65.03457
530.419	59.06615
530.62	55.92817
530.821	53.53546
531.022	50.7517
531.223	51.71296
531.424	50.97482
531.625	52.19176
531.826	52.73377
532.027	56.18986
532.228	60.77744
532.429	64.39408
532.63	68.07138
532.831	71.84095
533.032	72.51386
533.233	74.25202
533.433	72.68903
533.634	72.22725
533.835	69.5703
534.036	66.34354
534.237	61.76634
534.438	57.60087
534.638	52.07172
534.839	48.87861
535.04	46.91013
535.241	46.06409
535.441	47.67834
535.642	48.22557
535.843	49.39271
536.043	50.80581
536.244	51.7732
536.445	52.71789
536.645	53.76935
536.846	52.9154
537.047	52.32097
537.247	49.66942
537.448	47.58757
537.648	46.10474
537.849	44.0451
538.049	43.91937
538.25	44.24552
538.451	44.83265
538.651	43.84034
538.851	44.36341
539.052	45.37294
539.252	45.23905
539.453	44.3824
539.653	44.83353
539.854	45.92831
540.054	50.55696
540.254	57.36091
540.455	63.81268
540.655	68.18842
540.855	74.94949
541.056	78.0267
541.256	78.96803
541.456	80.81465
541.657	79.85889
541.857	78.68085
542.057	75.44043
542.257	71.7258
542.458	68.79793
542.658	64.08688
542.858	58.74368
543.058	56.12933
543.258	53.53938
543.458	49.90011
543.659	48.09974
543.859	47.94593
544.059	46.83869
544.259	44.42073
544.459	44.91825
544.659	44.23567
544.859	44.77846
545.059	44.3734
545.259	45.42384
545.459	45.00821
545.659	45.6487
545.859	45.51556
546.059	45.18489
546.259	45.04017
546.459	44.45579
546.659	44.4448
546.859	45.49695
547.059	45.38676
547.258	44.91393
547.458	45.44744
547.658	44.03623
547.858	44.28488
548.058	44.91511
548.258	44.32332
548.457	44.01543
548.657	46.7898
548.857	44.84094
549.057	45.35218
549.256	45.88202
549.456	44.5728
549.656	43.62331
549.855	46.67583
550.055	44.93727
550.255	46.93989
550.454	45.60288
550.654	46.09455
550.853	46.18471
551.053	46.30281
551.253	45.78665
551.452	45.92144
551.652	45.09463
551.851	44.50891
552.051	45.59408
552.25	45.13586
552.45	44.7963
552.649	45.07838
552.849	45.07253
553.048	45.42722
553.248	45.7751
553.447	44.79061
553.646	45.90611
553.846	46.99872
554.045	45.81014
554.244	44.27115
554.444	46.51625
554.643	44.72295
554.842	46.25756
555.042	47.06141
555.241	44.81103
555.44	44.95843
555.64	46.54362
555.839	47.07296
556.038	45.91879
556.237	45.07145
556.436	45.74033
556.636	45.85084
556.835	45.09868
557.034	47.16301
557.233	45.20118
557.432	44.73337
557.631	46.64458
557.83	45.77296
558.029	45.46926
558.228	45.23686
558.427	45.11629
558.626	46.42466
558.825	45.28145
559.024	46.17476
559.223	47.65489
559.422	45.37779
559.621	46.132
559.82	43.45463
560.019	45.74391
560.218	45.88673
560.417	43.63805
560.616	45.69965
560.815	48.43193
561.014	45.07399
561.212	47.04879
561.411	46.44306
561.61	44.57332
561.809	45.41664
562.008	46.7389
562.206	45.9681
562.405	46.15972
562.604	45.59743
562.803	45.98808
563.001	45.71943
563.2	44.71768
563.399	45.90791
563.597	44.99657
563.796	45.76069
563.995	45.03424
564.193	46.56286
564.392	45.86348
564.59	48.2334
564.789	44.62238
564.988	45.34367
565.186	46.18659
565.385	45.88714
565.583	45.49774
565.782	46.02726
565.98	46.02602
566.179	45.9776
566.377	45.14111
566.575	45.53723
566.774	47.10317
566.972	46.59916
567.171	47.42873
567.369	46.80609
567.567	45.92567
567.766	46.09836
567.964	43.72963
568.162	46.41667
568.361	46.71884
568.559	46.17298
568.757	46.32662
568.956	45.88573
569.154	45.94033
569.352	46.86728
569.55	45.99698
569.748	46.1656
569.947	45.22345
570.145	45.46205
570.343	45.66082
570.541	47.40024
570.739	45.32038
570.937	46.34073
571.135	46.5755
571.333	47.96615
571.532	47.54641
571.73	46.69105
571.928	47.1354
572.126	46.75143
572.324	45.60062
572.522	47.39107
572.72	48.52374
572.918	46.41138
573.116	46.38837
573.313	45.81358
573.511	46.28071
573.709	45.50749
573.907	46.88754
574.105	45.92908
574.303	44.99292
574.501	45.07858
574.699	46.64475
574.896	47.09217
575.094	46.71748
575.292	44.63564
575.49	46.91587
575.688	46.07684
575.885	47.20173
576.083	47.95831
576.281	47.02192
576.478	44.99317
576.676	46.77344
576.874	44.49386
577.071	46.10408
577.269	48.39227
577.467	46.54353
577.664	45.91469
577.862	47.55523
578.059	45.62045
578.257	47.28879
578.455	46.5697
578.652	46.97058
578.85	44.9262
579.047	46.27001
579.245	46.53827
579.442	46.48745
579.64	46.72737
579.837	45.09006
580.034	49.40571
580.232	46.56354
580.429	45.19641
580.627	47.41719
580.824	47.71459
581.021	47.10766
581.219	46.7624
581.416	45.89515
581.613	48.31959
581.811	48.07475
582.008	45.41901
582.205	47.2811
582.402	46.93189
582.6	48.13193
582.797	46.37673
582.994	46.64844
583.191	47.43049
583.388	46.28089
583.586	47.33725
583.783	47.67649
583.98	46.24124
584.177	46.91254
584.374	43.79789
584.571	46.10376
584.768	46.39455
584.965	45.58683
585.162	47.40099
585.359	48.28569
585.556	46.91074
585.753	47.04854
585.95	45.46741
586.147	46.04712
586.344	47.44569
586.541	46.48369
586.738	45.3464
586.935	46.33805
587.132	45.85484
587.329	48.20284
587.526	46.87627
587.722	52.57734
587.919	45.51445
588.116	47.65368
588.313	48.4218
588.51	49.33586
588.706	46.96158
588.903	47.76626
589.1	48.16752
589.297	49.08446
589.493	46.94106
589.69	47.71818
589.887	46.5405
590.083	46.09454
590.28	46.14926
590.477	47.22445
590.673	47.96388
590.87	48.37665
591.067	46.46119
591.263	47.52019
591.46	46.67015
591.656	45.92161
591.853	48.93875
592.049	46.2153
592.246	46.37629
592.442	48.66387
592.639	47.9835
592.835	46.23038
593.032	47.59103
593.228	45.62072
593.425	45.42896
593.621	45.10713
593.817	47.38483
594.014	45.92415
594.21	47.28309
594.406	48.28036
594.603	47.73345
594.799	46.1955
594.995	44.39282
595.192	48.34487
595.388	46.52189
595.584	47.2661
595.78	46.25178
595.977	49.50396
596.173	48.73665
596.369	46.87122
596.565	45.89616
596.761	45.70778
596.957	48.78509
597.154	46.89542
597.35	46.44139
597.546	46.20522
597.742	48.06579
597.938	46.97967
598.134	46.40154
598.33	46.92912
598.526	48.91454
598.722	47.15191
598.918	48.9727
599.114	47.79787
599.31	46.30731
599.506	47.26091
599.702	46.43951
599.898	48.0753
600.094	47.94884
600.29	48.49797
600.485	48.47392
600.681	46.30904
600.877	49.8627
601.073	47.4675
601.269	49.99433
601.465	49.2265
601.66	46.50502
601.856	45.33109
602.052	49.54525
602.248	47.37036
602.443	46.16421
602.639	46.36815
602.835	46.63049
603.03	46.2735
603.226	48.46069
603.422	46.45204
603.617	46.9682
603.813	47.04791
604.009	46.74011
604.204	48.72135
604.4	45.69502
604.595	47.80953
604.791	46.01793
604.986	47.45618
605.182	46.27886
605.377	46.65361
605.573	46.68223
605.768	46.78387
605.964	47.37854
606.159	47.90348
606.355	48.24226
606.55	46.49492
606.746	48.31393
606.941	46.88994
607.136	49.94002
607.332	50.73821
607.527	45.2461
607.722	48.3427
607.918	46.79361
608.113	47.10492
608.308	48.96502
608.503	48.34826
608.699	48.58221
608.894	48.65346
609.089	46.88301
609.284	47.90556
609.479	47.43331
609.675	48.58331
609.87	47.61947
610.065	48.27173
610.26	48.66857
610.455	47.94624
610.65	46.94103
610.845	47.12333
611.04	49.11495
611.235	47.2581
611.43	47.12386
611.625	45.79431
611.82	49.79341
612.015	47.27661
612.21	49.74433
612.405	46.01029
612.6	49.65105
612.795	49.46735
612.99	47.98854
613.185	46.8843
613.38	46.9415
613.575	47.64235
613.77	51.5626
613.965	46.00599
614.159	47.03964
614.354	50.10454
614.549	48.50114
614.744	49.01591
614.938	46.29837
615.133	45.436
615.328	50.32221
615.523	49.23135
615.717	52.39021
615.912	46.12119
616.107	48.73936
616.301	48.49235
616.496	47.43928
616.691	50.00002
616.885	49.3329
617.08	52.63362
617.274	49.98109
617.469	51.14677
617.664	49.49657
617.858	47.83598
618.053	49.87916
618.247	48.19878
618.442	44.69192
618.636	50.54564
618.831	46.67192
619.025	46.93035
619.219	52.63463
619.414	43.77614
619.608	48.08181
619.803	47.91938
619.997	51.15355
620.191	49.82629
620.386	49.55258
620.58	48.22877
620.774	45.72979
620.969	46.15954
621.163	48.43243
621.357	47.04455
621.551	47.54246
621.746	48.53339
621.94	48.09776
622.134	53.28451
622.328	52.27428
622.522	45.82973
622.716	49.43964
622.911	49.70054
623.105	50.06926
623.299	49.21448
623.493	53.8318
623.687	47.21796
623.881	47.80536
624.075	48.76614
624.269	50.33936
624.463	45.34303
624.657	45.79776
624.851	49.28592
625.045	49.45378
625.239	50.4425
625.433	48.4702
625.627	50.6503
625.821	47.92553
626.015	47.57712
626.209	49.0686
626.403	46.52996
626.596	49.48914
626.79	49.86283
626.984	46.63531
627.178	49.01079
627.372	49.2826
627.565	49.05413
627.759	46.21936
627.953	46.63067
628.147	48.91009
628.34	49.04248
628.534	52.18471
628.728	47.4861
628.921	49.57236
629.115	49.25709
629.309	50.44384
629.502	50.65095
629.696	49.02774
629.89	48.58841
630.083	48.79417
630.277	49.70702
630.47	51.18093
630.664	47.60648
630.857	45.83196
631.051	49.40521
631.244	50.54745
631.438	50.91317
631.631	46.79791
631.825	51.53922
632.018	49.36711
632.212	51.94393
632.405	51.05981
632.598	47.0906
632.792	49.65111
632.985	45.76948
633.178	48.89737
633.372	48.63533
633.565	49.37476
633.758	50.9651
633.952	47.19514
634.145	47.3921
634.338	48.56451
634.531	47.57865
634.724	47.53879
634.918	48.81109
635.111	47.94844
635.304	47.39106
635.497	53.58109
635.69	48.51789
635.883	51.35447
636.077	46.98144
636.27	50.33466
636.463	48.56179
636.656	49.20745
636.849	48.23493
637.042	51.20304
637.235	51.34912
637.428	50.67316
637.621	51.15309
637.814	51.0365
638.007	51.78404
638.2	51.62529
638.393	51.61512
638.586	46.8144
638.778	48.54159
638.971	49.30149
639.164	51.42019
639.357	48.65186
639.55	52.70762
639.743	51.12994
639.935	49.85058
640.128	53.27245
640.321	50.55099
640.514	49.47373
640.707	53.81663
640.899	50.57271
641.092	46.11126
641.285	65.42582
641.477	45.87161
641.67	54.54211
641.863	51.94719
642.055	49.1035
642.248	48.57676
642.441	48.82871
642.633	50.29268
642.826	51.33639
643.018	52.07655
643.211	53.84134
643.403	53.01234
643.596	55.26581
643.788	53.52754
643.981	49.45164
644.173	52.9602
644.366	50.38823
644.558	46.07251
644.751	52.33217
644.943	47.24043
645.135	53.35632
645.328	53.68074
645.52	50.77668
645.712	53.20732
645.905	57.17058
646.097	48.00423
646.289	50.8929
646.482	55.87309
646.674	49.68621
646.866	53.34506
647.058	51.70836
647.251	48.10104
647.443	49.00879
647.635	50.53945
647.827	46.65963
648.019	49.19566
648.211	49.90296
648.404	50.14855
648.596	54.6353
648.788	50.72972
648.98	51.0416
649.172	51.54908
649.364	51.58511
649.556	47.42254
649.748	57.63597
649.94	48.30453
650.132	51.87943
650.324	48.13666
650.516	48.82925
650.708	53.9685
650.9	47.29655
651.092	47.39141
651.284	47.47337
651.476	47.88877
651.667	53.03007
651.859	52.63678
652.051	50.08437
652.243	50.94963
652.435	49.49221
652.627	52.30031
652.818	51.30035
653.01	46.8448
653.202	47.59805
653.394	49.20038
653.585	52.0624
653.777	60.53817
653.969	53.16274
654.16	53.56206
654.352	47.80296
654.544	49.91911
654.735	52.99555
654.927	51.33323
655.118	54.78341
655.31	52.71637
655.502	54.38072
655.693	49.79045
655.885	53.47877
656.076	54.7087
656.268	51.94859
656.459	54.79523
656.651	54.39293
656.842	50.23202
657.034	49.69625
657.225	52.85806
657.416	53.90606
657.608	55.58
657.799	51.96899
657.99	54.0646
658.182	49.85275
658.373	50.36866
658.564	53.40079
658.756	51.69937
658.947	51.07502
659.138	49.22364
659.33	49.84728
659.521	49.34535
659.712	50.13903
659.903	50.63817
660.094	49.10334
660.286	47.56202
660.477	54.51269
660.668	52.49242
660.859	50.74221
661.05	47.31901
661.241	53.12754
661.432	52.99699
661.623	50.85235
661.814	50.93082
662.006	48.0697
662.197	51.76845
662.388	54.25718
662.579	52.32101
662.77	55.81724
662.96	59.12256
663.151	53.88915
663.342	47.91439
663.533	52.99527
663.724	51.86247
663.915	56.51496
664.106	51.75067
664.297	57.40668
664.488	53.71893
664.678	50.2604
664.869	54.48438
665.06	55.37409
665.251	53.61968
665.442	53.69546
665.632	49.0756
665.823	57.10841
666.014	43.96048
666.204	54.36687
666.395	57.0048
666.586	60.54289
666.776	54.43881
666.967	56.97509
667.158	54.20064
667.348	56.90593
667.539	50.17459
667.729	55.56587
667.92	51.07766
668.111	55.81325
668.301	54.10779
668.492	52.07501
668.682	52.96255
668.873	52.1519
669.063	49.83535
669.253	54.05885
669.444	54.71416
669.634	51.09568
669.825	58.91001
670.015	55.04961
670.206	49.27659
670.396	57.98181
670.586	52.03888
670.777	55.30178
670.967	46.99477
671.157	51.36724
671.347	49.80605
671.538	57.51815
671.728	55.47098
671.918	59.81211
672.108	56.08618
672.299	52.29151
672.489	54.59639
672.679	51.8792
672.869	53.17533
673.059	60.3512
673.249	55.21159
673.44	50.58989
673.63	53.9664
673.82	56.43303
674.01	50.78378
674.2	54.29355
674.39	62.36937
674.58	56.22153
674.77	53.82504
674.96	52.41925
675.15	66.16992
675.34	58.40114
675.53	53.19665
675.72	53.74676
675.91	49.78251
676.099	60.62553
676.289	61.36956
676.479	57.76352
676.669	53.18732
676.859	55.58406
677.049	52.5113
677.238	53.51024
677.428	58.63187
677.618	56.81215
677.808	59.73186
677.997	55.78034
678.187	50.80641
678.377	54.11309
678.567	53.03446
678.756	53.30184
678.946	54.65431
679.136	50.81731
679.325	52.57703
679.515	52.07186
679.704	51.68702
679.894	55.46006
680.084	55.0166
680.273	58.10523
680.463	52.89816
680.652	50.64284
680.842	53.64497
681.031	57.32983
681.221	51.90514
681.41	56.47001
681.6	53.69138
681.789	56.44533
681.978	59.33736
682.168	54.89441
682.357	55.18708
682.547	55.18487
682.736	55.54927
682.925	59.1581
683.115	58.66301
683.304	57.46625
683.493	56.54673
683.682	57.54405
683.872	57.15468
684.061	60.13513
684.25	57.38877
684.439	62.21181
684.629	59.36933
684.818	68.26045
685.007	56.06947
685.196	56.14127
685.385	62.61223
685.574	58.2098
685.763	58.55521
685.952	57.88694
686.142	52.84775
686.331	61.25066
686.52	50.59994
686.709	63.09468
686.898	61.99306
687.087	58.65975
687.276	63.80548
687.465	60.78723
687.654	56.53965
687.842	62.52654
688.031	53.89594
688.22	63.16952
688.409	58.16785
688.598	58.13931
688.787	67.02008
688.976	57.14386
689.165	65.02574
689.353	55.4355
689.542	59.47842
689.731	61.66402
689.92	66.48497
690.108	59.72947
690.297	57.22063
690.486	57.29747
690.675	62.43104
690.863	64.94913
691.052	63.45184
691.241	58.06753
691.429	58.74539
691.618	65.82147
691.806	53.98097
691.995	56.36348
692.184	58.10365
692.372	57.02538
692.561	59.94307
692.749	57.39286
692.938	68.91776
693.126	60.89883
693.315	58.94514
693.503	62.0608
693.692	61.19495
693.88	62.32916
694.068	68.31984
694.257	58.40181
694.445	61.86833
694.634	51.01984
694.822	62.50955
695.01	64.05092
695.199	64.74962
695.387	63.89838
695.575	64.68914
695.763	58.35088
695.952	57.02582
696.14	52.78202
696.328	57.31126
696.516	59.05942
696.705	60.42919
696.893	60.29663
697.081	52.51355
697.269	62.77073
697.457	55.92947
697.645	54.79939
697.833	62.29401
698.021	56.27877
698.21	57.41364
698.398	58.6465
698.586	54.57724
698.774	53.96545
698.962	56.70355
699.15	54.60038
699.338	52.51993
699.526	58.44141
699.714	54.84533
699.901	55.4013
700.089	61.58471
700.277	55.29873
700.465	56.51746
700.653	63.15383
700.841	60.65834
701.029	56.01247
701.217	62.92718
701.404	59.3214
701.592	65.78391
701.78	67.89275
701.968	58.90127
702.155	58.54035
702.343	52.69208
702.531	64.87859
702.718	60.70535
702.906	58.88163
703.094	57.52521
703.281	65.22146
703.469	63.28705
703.657	65.59537
703.844	74.98618
704.032	68.57528
704.219	58.04633
704.407	62.5781
704.595	66.02971
704.782	60.03958
704.97	59.54275
705.157	58.78193
705.345	67.3653
705.532	75.90567
705.719	65.24943
705.907	66.88369
706.094	60.11258
706.282	70.49378
706.469	63.15197
706.656	63.12978
706.844	60.2287
707.031	66.49279
707.218	63.95219
707.406	70.49041
707.593	65.70028
707.78	64.62324
707.968	62.37052
708.155	58.78103
708.342	63.86862
708.529	64.32393
708.716	63.89072
708.904	71.22994
709.091	65.76773
709.278	57.61606
709.465	74.40645
709.652	71.85644
709.839	69.80017
710.026	65.32822
710.213	57.37953
710.4	66.70157
710.587	67.85364
710.774	71.9342
710.961	69.68585
711.148	65.70489
711.335	69.19628
711.522	62.92714
711.709	66.49172
711.896	77.64319
712.083	69.6076
712.27	60.3225
712.457	64.91406
712.644	57.97538
712.831	74.39518
713.017	67.72478
713.204	67.41405
713.391	62.13714
713.578	72.19396
713.765	73.6909
713.951	66.81828
714.138	84.9369
714.325	68.77091
714.512	66.28893
714.698	61.57711
714.885	74.06069
715.072	66.50512
715.258	67.11582
715.445	63.1458
715.631	73.23654
715.818	52.99954
716.005	61.70327
716.191	69.29841
716.378	62.68839
716.564	71.14517
716.751	61.74711
716.937	63.13269
717.124	70.39149
717.31	61.97841
717.497	73.26836
717.683	62.95027
717.869	79.93439
718.056	64.87742
718.242	66.58487
718.429	64.27272
718.615	59.99143
718.801	67.53409
718.988	71.94327
719.174	70.03682
719.36	66.27875
719.547	72.73752
719.733	69.61617
719.919	71.78645
720.105	73.1194
720.291	67.57178
720.478	68.82348
720.664	65.72444
720.85	65.5982
721.036	85.78155
721.222	77.83412
721.408	66.33233
721.595	79.25716
721.781	77.49684
721.967	74.96303
722.153	80.14308
722.339	72.63922
722.525	71.15447
722.711	64.43244
722.897	61.27881
723.083	66.17139
723.269	71.41699
723.455	85.34967
723.641	90.66806
723.827	70.35023
724.012	72.72507
724.198	66.65387
724.384	77.16835
724.57	75.3028
724.756	61.34271
724.942	56.88355
725.127	74.53325
725.313	81.006
725.499	77.48874
725.685	80.95222
725.87	72.29173
726.056	63.55295
726.242	79.37713
726.428	60.16683
726.613	77.86861
726.799	66.69192
726.985	61.77359
727.17	58.24197
727.356	80.93829
727.541	61.64246
727.727	70.08514
727.913	71.99307
728.098	67.16507
728.284	75.60593
728.469	63.00451
728.655	63.7782
728.84	75.85971
729.026	75.75325
729.211	73.62916
729.397	74.58679
729.582	72.70346
729.767	70.96739
729.953	70.61506
730.138	77.78517
730.323	56.35075
730.509	64.21541
730.694	83.16341
730.879	75.41754
731.065	70.45791
731.25	85.73332
731.435	76.87272
731.621	62.1667
731.806	67.71709
731.991	72.12478
732.176	62.3214
732.361	81.35812
732.547	75.93294
732.732	60.70579
732.917	88.3219
733.102	62.45807
733.287	64.30913
733.472	70.22828
733.657	71.69831
733.842	59.93016
734.027	64.99918
734.212	68.56905
734.397	65.95338
734.582	71.45671
734.767	77.50318
734.952	81.23103
735.137	52.83065
735.322	81.16382
735.507	71.34327
735.692	72.1891
735.877	90.27875
736.062	83.84959
736.247	76.57116
736.431	71.69035
736.616	77.32341
736.801	74.90452
736.986	71.98362
737.171	63.01058
737.355	63.4989
737.54	80.13276
737.725	73.84381
737.909	92.61972
738.094	68.02564
738.279	81.30525
738.463	71.59354
738.648	77.8594
738.833	77.17457
739.017	89.04709
739.202	70.73317
739.386	70.42817
739.571	67.21708
739.756	78.68066
739.94	72.84215
740.125	80.17113
740.309	66.34142
740.494	80.9443
740.678	73.5757
740.863	76.29295
741.047	77.26354
741.231	86.7759
741.416	69.82175
741.6	86.03006
741.785	67.10181
741.969	82.538
742.153	86.36646
742.338	57.69257
742.522	74.53145
742.706	78.90401
742.89	63.1043
743.075	75.54498
743.259	86.65001
743.443	82.53167
743.627	88.36171
743.812	93.45838
743.996	52.4429
744.18	70.80632
744.364	71.97313
744.548	99.89575
744.732	71.41798
744.916	84.00673
745.1	80.41732
745.285	73.53282
745.469	81.64842
745.653	89.15905
745.837	63.0553
746.021	96.63541
746.205	86.51
746.389	75.58035
746.573	72.00281
746.757	89.71752
746.94	72.8898
747.124	89.76735
747.308	63.39567
747.492	83.45946
747.676	70.03895
747.86	103.04592
748.044	69.26635
748.227	60.41957
748.411	113.30357
748.595	78.42392
748.779	66.76438
748.963	80.37321
749.146	76.89096
749.33	67.44417
749.514	67.63217
749.697	85.6667
749.881	69.87537
750.065	66.82525
750.248	76.15466
750.432	100.64358
750.616	76.46314
750.799	64.81464
750.983	97.15942
751.166	100.11374
751.35	62.66534
751.533	82.69962
751.717	89.95779
751.9	90.24119
752.084	72.54508
752.267	65.70893
752.451	72.50989
752.634	74.98103
752.818	81.60989
753.001	84.61061
753.184	87.19058
753.368	82.1557
753.551	45.64744
753.734	69.35314
753.918	97.23121
754.101	69.24405
754.284	82.605
754.467	71.36978
754.651	75.41256
754.834	68.37799
755.017	86.28125
755.2	87.13328
755.384	69.29904
755.567	87.41268
755.75	85.48272
755.933	75.15479
756.116	80.22456
756.299	72.54036
756.482	69.76429
756.665	83.83898
756.848	79.39309
757.032	87.17662
757.215	62.66686
757.398	72.37516
757.581	67.24922
757.764	104.25311
757.947	75.0966
758.129	92.50485
758.312	51.41948
758.495	77.77388
758.678	76.03988
758.861	72.63361
759.044	98.30622
759.227	70.12085
759.41	73.70115
759.592	88.7305
759.775	78.60442
759.958	89.83084
760.141	67.29737
760.324	105.31195
760.506	93.63216
760.689	87.79668
760.872	105.73758
761.054	86.5408
761.237	72.22621
761.42	80.93082
761.602	88.62337
761.785	82.69475
761.968	90.10301
762.15	95.56209
762.333	72.6821
762.515	84.3794
762.698	73.1655
762.88	86.14913
763.063	80.64262
763.245	85.6673
763.428	69.73987
763.61	72.75392
763.793	65.98898
763.975	81.30866
764.158	72.65538
764.34	74.6153
764.522	68.35053
764.705	75.19346
764.887	90.92919
765.069	64.41495
765.252	86.67779
765.434	87.83346
765.616	77.2805
765.799	73.14486
765.981	84.70959
766.163	74.72986
766.345	91.44317
766.528	72.26182
766.71	54.89221
766.892	82.47422
767.074	95.60611
767.256	78.45508
767.438	96.42722
767.62	81.88635
767.802	99.47359
767.985	88.67088
768.167	103.74901
768.349	77.80244
768.531	85.53428
768.713	85.56084
768.895	89.37726
769.077	83.84326
769.259	111.63636
769.441	140.03535
769.623	90.10765
769.804	102.87593
769.986	96.56438
770.168	112.61416
770.35	125.91049
770.532	108.67741
770.714	106.01693
770.896	115.1044
771.077	66.10322
771.259	120.77586
771.441	93.63335
771.623	126.84303
771.804	138.17883
771.986	68.0929
772.168	83.44938
772.35	115.04227
772.531	147.67599
772.713	101.13929
772.894	126.19482
773.076	99.90123
773.258	95.15246
773.439	125.21267
773.621	135.58532
773.802	88.25151
773.984	95.03779
774.166	103.6103
774.347	130.74101
774.529	121.76179
774.71	60.96529
774.891	93.70791
775.073	92.46122
775.254	132.42676
775.436	89.57637
775.617	142.10952
775.799	82.83363
775.98	126.97344
776.161	136.13582
776.343	136.62199
776.524	100.1718
776.705	92.3886
776.886	65.74115
777.068	111.28902
777.249	159.99328
777.43	143.79935
777.611	83.58699
777.793	98.40352
777.974	130.17787
778.155	86.76503
778.336	84.31034
778.517	146.07776
778.698	84.23469
778.879	67.04365
779.061	55.39589
779.242	107.37992
779.423	106.01553
779.604	93.32636
779.785	102.22743
779.966	102.46563
780.147	121.66368
780.328	126.56724
780.509	155.01145
780.69	123.60156
780.871	86.38314
781.051	75.51101
781.232	103.98916
781.413	102.706
781.594	95.9163
781.775	96.98203
781.956	81.1335
782.137	60.83234
782.317	86.86309
782.498	105.56622
782.679	114.59131
782.86	104.75425
783.04	86.07906
783.221	113.63837
783.402	134.86505
783.583	104.13928
783.763	124.78511
783.944	93.9647
784.124	73.61105
784.305	133.57863
784.486	116.08365
784.666	102.5008
784.847	75.42985
785.027	161.3587
785.208	89.03188
785.388	87.54456
785.569	88.23607
785.749	97.93269
785.93	91.49927
786.11	75.28639
786.291	108.72508
786.471	105.21522
786.652	121.43781
786.832	101.75649
787.012	113.24895
787.193	83.43097
787.373	103.87369
787.553	96.50838
787.734	111.54187
787.914	96.35323
788.094	116.06965
788.275	113.13406
788.455	95.43481
788.635	75.41967
788.815	101.64232
788.995	87.11049
789.176	74.00681
789.356	86.76121
789.536	99.12528
789.716	111.92424
789.896	86.88333
790.076	89.36645
790.256	106.60311
790.436	59.23109
790.616	86.4783
790.796	104.311
790.976	96.14058
791.156	87.0073
791.336	121.92069
791.516	110.71945
791.696	95.50509
791.876	75.33787
792.056	100.55991
792.236	123.85918
792.416	117.41231
792.596	107.53854
792.776	110.22413
792.956	116.84558
793.135	136.16249
793.315	81.40128
793.495	127.56937
793.675	123.78442
793.854	115.92778
794.034	125.05559
794.214	83.6912
794.394	120.77089
794.573	129.00833
794.753	109.29267
794.933	91.56237
795.112	109.9158
795.292	119.17879
795.472	137.6688
795.651	76.59607
795.831	99.66179
796.01	98.01901
796.19	91.55042
796.369	105.16224
796.549	115.30214
796.728	100.96693
796.908	77.04372
797.087	78.72218
797.267	89.69618
797.446	78.3353
797.626	113.6892
797.805	106.83926
797.984	87.45401
798.164	118.48066
798.343	84.62386
798.522	106.59556
798.702	101.03036
798.881	78.62004
799.06	94.42772
799.239	68.83966
799.419	84.67292
799.598	135.26079
799.777	106.85163
799.956	130.30489
800.136	95.47152
800.315	86.26851
800.494	112.7115
800.673	125.71337
800.852	118.82982
801.031	125.83908
801.21	118.24408
801.389	97.9358
801.568	104.82245
801.747	143.56504
801.926	103.26923
802.105	144.67097
802.284	94.07028
802.463	138.23394
802.642	112.1018
802.821	100.66729
803	130.91197
803.179	125.3282
803.358	129.80929
803.537	93.26442
803.716	104.96715
803.895	87.39414
804.073	105.71003
804.252	97.18643
804.431	106.80942
804.61	96.49406
804.789	125.29945
804.967	92.15551
805.146	97.6261
805.325	154.16342
805.503	120.87385
805.682	77.12195
805.861	170.17584
806.039	137.38697
806.218	101.44838
806.397	113.33627
806.575	110.4534
806.754	110.51676
806.932	82.26251
807.111	136.86792
807.289	132.07162
807.468	107.95635
807.646	126.65067
807.825	119.99372
808.003	119.90523
808.182	128.52878
808.36	114.73759
808.539	83.89269
808.717	137.26327
808.895	83.49864
809.074	105.70513
809.252	108.35335
809.43	123.81573
809.609	133.01491
809.787	153.09211
809.965	106.45956
810.144	116.27075
810.322	113.20001
810.5	120.92896
810.678	110.69574
810.856	152.17303
811.035	135.46537
811.213	137.89698
811.391	135.56883
811.569	120.9489
811.747	188.54878
811.925	149.47573
812.103	90.07093
812.281	117.63263
812.459	157.37009
812.637	158.61473
812.816	139.61992
812.994	163.33552
813.171	144.19055
813.349	127.35973
813.527	153.11003
813.705	143.07543
813.883	169.2388
814.061	141.90436
814.239	157.71791
814.417	175.29907
814.595	134.09159
814.773	121.75779
814.95	120.60738
815.128	123.51233
815.306	118.49057
815.484	118.37669
815.662	94.44162
815.839	87.06889
816.017	96.61326
816.195	149.23336
816.372	107.26139
816.55	141.82913
816.728	155.45456
816.905	106.36967
817.083	159.69819
817.261	118.33346
817.438	179.97492
817.616	163.14943
817.793	97.72847
817.971	143.72786
818.148	127.62017
818.326	163.05159
818.503	122.00634
818.681	157.57333
818.858	106.79854
819.036	113.5691
819.213	122.59497
819.391	104.8255
819.568	93.92011
819.745	96.3794
819.923	135.46327
820.1	109.3103
820.277	93.39952
820.455	103.51257
820.632	104.46104
820.809	110.02972
820.986	86.83083
821.164	78.08479
821.341	77.10908
821.518	89.78851
821.695	80.12372
821.872	79.27217
822.05	74.23871
822.227	69.22118
822.404	70.1367
822.581	72.98112
822.758	69.52194
822.935	68.30775
823.112	71.67789
823.289	67.59129
823.466	70.5504
823.643	69.33068
823.82	73.32105
823.997	70.55632
824.174	74.549
824.351	84.11623
824.528	81.78783
824.705	80.97409
824.882	84.84137
825.059	96.15534
825.236	84.12749
825.412	86.54452
825.589	95.62659
825.766	115.07783
825.943	88.41455
826.12	94.22189
826.296	81.97175
826.473	91.53094
826.65	90.36637
826.827	100.71572
827.003	81.73375
827.18	83.43573
827.357	90.46494
827.533	83.03072
827.71	68.58365
827.887	79.19611
828.063	84.17853
828.24	78.53872
828.416	88.41662
828.593	81.11484
828.769	99.78093
828.946	98.89038
829.122	100.74279
829.299	101.73307
829.475	74.64433
829.652	103.77972
829.828	134.40507
830.005	104.06266
830.181	124.98837
830.357	100.9776
830.534	130.21691
830.71	113.64305
830.886	126.81652
831.063	132.26528
831.239	145.88742
831.415	84.29954
831.592	150.85106
831.768	109.5789
831.944	105.12693
832.12	156.35458
832.296	148.97965
832.473	128.79294
832.649	98.20999
832.825	123.17254
833.001	93.04167
833.177	114.59249
833.353	105.28262
833.529	80.81751
833.705	98.27936
833.881	86.5978
834.058	82.85894
834.234	85.22636
834.41	84.61395
834.586	77.45377
834.761	81.64417
834.937	85.09616
835.113	86.09039
835.289	81.54702
835.465	89.35219
835.641	78.79096
835.817	86.63011
835.993	127.78559
836.169	89.55394
836.344	110.50087
836.52	118.57862
836.696	123.27131
836.872	106.99298
837.048	195.76312
837.223	118.22452
837.399	176.80946
837.575	148.70066
837.75	144.28971
837.926	169.7426
838.102	255.68735
838.277	224.83282
838.453	284.96188
838.628	277.64003
838.804	137.30323
838.98	252.04549
839.155	149.77326
839.331	197.03661
839.506	142.87557
839.682	139.21109
839.857	153.7625
840.033	183.67972
840.208	113.67594
840.384	80.20041
840.559	122.22188
840.734	148.77282
840.91	194.6591
841.085	140.54689
841.26	141.30904
841.436	128.38157
841.611	137.29619
841.786	171.44091
841.962	204.22119
842.137	168.32009
842.312	114.50461
842.487	157.1484
842.663	128.97869
842.838	133.04825
843.013	366.16211
843.188	253.58697
843.363	166.10223
843.538	349.94038
843.714	406.54249
843.889	357.80699
844.064	361.38803
844.239	310.66434
844.414	475.9622
844.589	297.02595
844.764	431.67539
844.939	437.06887
845.114	466.9589
845.289	482.35317
845.464	556.05339
845.639	421.92893
845.814	257.98675
845.989	359.92525
846.163	289.89577
846.338	363.67037
846.513	472.93029
846.688	291.88044
846.863	330.6678
847.038	293.78757
847.212	314.72581
847.387	389.66038
847.562	346.46093
847.737	522.71429
847.911	198.42633
848.086	215.00976
848.261	516.7671
848.435	303.31052
848.61	412.31601
848.785	267.78561
848.959	470.0434
849.134	513.8107
849.308	683.21635
849.483	361.81914
849.658	604.75074
849.832	322.01332
850.007	327.98298
850.181	723.01681
850.356	327.12865
850.53	811.55765
850.705	365.7548
850.879	176.47645
851.053	365.16865
851.228	354.52708
851.402	533.50715
851.577	538.66212
851.751	657.55964
851.925	372.64517
852.099	211.43533
852.274	264.14511
852.448	350.52192
852.622	505.09728
852.797	368.92176
852.971	361.64924
853.145	402.73889
853.319	816.85182
853.493	736.27188
853.668	569.55808
853.842	812.43785
854.016	520.37959
854.19	713.86635
854.364	391.21578
854.538	369.71842
854.712	814.80077
854.886	479.99109
855.06	364.35618
855.234	155.44742
855.408	692.08509
855.582	447.91225
855.756	721.5733
855.93	652.98566
856.104	695.55961
856.278	618.55478
856.452	442.75582
856.626	437.58501
856.8	948.37758
856.973	420.04112
857.147	451.90775
857.321	502.34932
857.495	563.95561
857.669	359.91812
857.842	464.45567
858.016	659.05652
858.19	323.71853
858.364	853.03338
858.537	436.37352
858.711	547.18406
858.885	431.31877
859.058	297.23801
859.232	179.70877
859.405	202.82058
859.579	525.91714
859.753	574.16801
859.926	267.42838
860.1	301.69046
860.273	412.49431
860.447	506.17189
860.62	408.78335
860.794	643.69972
860.967	402.02851
861.141	554.34284
861.314	828.26337
861.487	506.82127
861.661	521.63901
861.834	547.28211
862.008	728.65833
862.181	520.57334
862.354	532.77294
862.528	527.54631
862.701	359.29282
862.874	201.09823
863.047	392.95031
863.221	322.75951
863.394	223.61494
863.567	430.94143
863.74	194.39383
863.913	564.5062
864.087	538.84227
864.26	501.90008
864.433	428.30173
864.606	629.65095
864.779	404.49379
864.952	232.35714
865.125	449.08922
865.298	357.10683
865.471	395.20745
865.644	767.40831
865.817	580.91059
865.99	503.38558
866.163	496.15955
866.336	318.33587
866.509	386.90708
866.682	647.71842
866.855	777.30379
867.028	254.71805
867.2	404.87609
867.373	200.01824
867.546	465.998
867.719	722.88238
867.892	516.13356
868.064	309.85571
868.237	395.60689
868.41	434.36916
868.583	245.32054
868.755	284.63369
868.928	541.09221
869.101	869.70922
869.273	584.21285
869.446	578.8001
869.619	620.94099
869.791	402.65292
869.964	542.13418
870.136	892.51546
870.309	436.59287
870.481	471.77274
870.654	263.39249
870.826	356.61597
870.999	241.08763
871.171	451.09032
871.344	302.60749
871.516	360.12709
871.689	284.30362
871.861	386.4089
872.033	317.19072
872.206	308.17033
872.378	402.92139
872.55	343.33531
872.723	263.57892
872.895	350.05687
873.067	498.72318
873.24	442.86444
873.412	386.35581
873.584	418.9859
873.756	363.04717
873.928	522.38471
874.101	396.54404
874.273	452.36045
874.445	149.00706
874.617	293.13959
874.789	362.91684
874.961	407.02964
875.133	420.32279
875.305	421.88474
875.477	338.57569
875.649	204.94557
875.821	249.91519
875.993	684.74192
876.165	368.35866
876.337	439.57066
876.509	356.71391
876.681	444.80577
876.853	409.59642
877.025	393.32144
877.197	300.80625
877.369	216.83426
877.541	396.02274
877.712	172.61514
877.884	245.77755
878.056	408.26363
878.228	217.8402
878.4	449.22806
878.571	222.13761
878.743	177.51304
878.915	320.99401
879.086	190.21077
879.258	240.9372
879.43	230.35565
879.601	188.39585
879.773	197.27217
879.945	85.75346
880.116	111.64413
880.288	85.00038
880.459	85.35786
880.631	86.31494
880.802	90.31839
880.974	85.47306
881.145	76.3121
881.317	84.12432
881.488	77.66142
881.66	79.15657
881.831	76.52693
882.002	82.43519
882.174	76.72584
882.345	80.2573
882.517	66.56126
882.688	87.49365
882.859	80.72913
883.03	99.24171
883.202	95.2135
883.373	89.29596
883.544	88.46026
883.715	118.42729
883.887	112.40414
884.058	102.80894
884.229	131.86854
884.4	132.05894
884.571	147.67751
884.742	133.28828
884.914	145.93095
885.085	173.32458
885.256	234.26281
885.427	204.54729
885.598	235.4358
885.769	231.6336
885.94	242.52503
886.111	174.7576
886.282	268.63296
886.453	241.35106
886.624	181.86518
886.795	297.34696
886.966	246.7822
887.136	295.36565
887.307	232.79386
887.478	383.80705
887.649	328.34111
887.82	336.15465
887.991	318.06125
888.161	410.59892
888.332	434.88788
888.503	189.12946
888.674	464.74987
888.844	629.02808
889.015	436.97637
889.186	293.15437
889.356	602.74659
889.527	269.52372
889.698	757.22155
889.868	314.83265
890.039	480.19113
890.209	379.24286
890.38	452.22487
890.551	404.55873
890.721	470.94121
890.892	512.53336
891.062	462.36888
891.233	610.8357
891.403	512.55249
891.574	394.57527
891.744	344.5659
891.914	409.84954
892.085	480.10728
892.255	179.74039
892.425	531.60229
892.596	381.93512
892.766	482.74352
892.936	534.30348
893.107	473.24415
893.277	227.03906
893.447	284.28864
893.618	195.58145
893.788	266.56169
893.958	170.78326
894.128	167.85701
894.298	190.00542
894.468	217.11845
894.639	109.12166
894.809	103.63481
894.979	126.61627
895.149	147.58839
895.319	123.94318
895.489	157.54031
895.659	195.01088
895.829	144.54971
895.999	146.61409
896.169	138.92153
896.339	153.75503
896.509	247.37599
896.679	271.38133
896.849	310.32829
897.019	349.60217
897.189	308.974
897.358	274.86985
897.528	434.89919
897.698	262.00899
897.868	391.64428
898.038	709.87447
898.208	691.25734
898.377	287.51079
898.547	1109.18675
898.717	1493.55341
898.886	506.84601
899.056	735.30174
899.226	1582.46447
899.395	817.61876
899.565	1361.68913
899.735	999.93864
899.904	1008.73878
900.074	1036.1729
900.244	347.7857
900.413	1308.31421
900.583	452.46522
900.752	1343.2408
900.922	1118.41916
901.091	170.51649
901.261	1727.08851
901.43	621.25575
901.599	2488.97391
901.769	1486.35933
901.938	1224.9681
902.108	1764.53707
902.277	840.99204
902.446	474.62836
902.616	369.56524
902.785	666.4135
902.954	802.53806
903.124	592.06453
903.293	322.90705
903.462	187.30309
903.631	255.92802
903.801	188.76978
903.97	122.98175
904.139	171.43874
904.308	139.74586
904.477	128.91911
904.646	89.7374
904.816	114.45118
904.985	157.5954
905.154	209.08404
