Data from WindowProjectSample3_Transmission__41__00041.txt Node

Date: Sun May 04 11:07:34 EDT 2025
User: jessi
Spectrometer: SR400872
Trigger mode: 0
Integration Time (sec): 5.000050E-1
Scans to average: 20
Electric dark correction enabled: true
Nonlinearity correction enabled: true
Boxcar width: 0
XAxis mode: Wavelengths
Number of Pixels in Spectrum: 3648
>>>>>Begin Spectral Data<<<<<
184.909	-1291.36373
185.132	-1505.50519
185.355	-1166.678
185.578	-1062.19965
185.801	1202.08349
186.024	-946.15157
186.247	-4754.31322
186.47	-1781.16606
186.693	-449.15103
186.916	-648.34487
187.139	-777.57178
187.362	-2831.45338
187.585	-814.33729
187.808	-5210.78477
188.031	9968.84445
188.254	-2263.73275
188.476	-8799.6115
188.699	-1081.4112
188.922	644.19678
189.145	-1222.18596
189.368	3057.36528
189.591	-2265.48958
189.813	-1533.29742
190.036	-837.01298
190.259	-1100.71555
190.482	-1531.78517
190.705	-2366.97052
190.927	-722.9839
191.15	-1519.12464
191.373	-1169.3696
191.595	-1335.09605
191.818	-1307.31578
192.041	-724.78375
192.263	-1078.80638
192.486	-551.908
192.709	-1509.73833
192.931	-3236.96788
193.154	-1152.08132
193.377	-1592.5949
193.599	-3218.7498
193.822	-3319.14461
194.044	-3227.34984
194.267	-1876.68287
194.489	36.40363
194.712	-921.63812
194.934	-1714.03832
195.157	-738.33135
195.379	-1292.03144
195.602	-858.28077
195.824	-1264.73693
196.047	-2063.94057
196.269	-1107.14565
196.492	-1357.3993
196.714	-1242.25498
196.936	-1182.13439
197.159	-899.09616
197.381	-723.81475
197.604	-403.438
197.826	-2009.4205
198.048	-1131.59245
198.271	-1587.45567
198.493	-1174.18561
198.715	-939.10261
198.938	-3158.13019
199.16	-4222.70404
199.382	-1238.1148
199.604	-1174.06288
199.827	-1960.91735
200.049	-1619.38609
200.271	-1174.50042
200.493	-1427.69469
200.715	-962.84419
200.938	-833.99337
201.16	-941.15949
201.382	-1063.8203
201.604	-1253.15137
201.826	-738.25431
202.048	-822.28609
202.27	-1446.68231
202.492	-1420.97921
202.715	-1844.67408
202.937	-2020.82321
203.159	-1315.07448
203.381	-1540.76605
203.603	-970.517
203.825	-5153.78089
204.047	-1673.1119
204.269	-1389.57554
204.491	-1260.74721
204.713	-1503.44672
204.935	-1370.60428
205.156	-2694.90003
205.378	-2719.61481
205.6	-1609.19057
205.822	-1099.46907
206.044	1212.76725
206.266	-1329.26999
206.488	-859.32551
206.71	-1707.7329
206.932	-1731.33952
207.153	-1109.39403
207.375	-1303.26093
207.597	-1106.53348
207.819	-1124.85522
208.041	-1204.19753
208.262	-1743.47412
208.484	-873.53202
208.706	-2181.43296
208.927	-771.98409
209.149	-1344.15839
209.371	-1229.0814
209.593	-1476.47761
209.814	-603.8047
210.036	-834.25693
210.258	-729.18812
210.479	-1018.36582
210.701	-1820.6243
210.922	-1254.10281
211.144	-975.78942
211.366	-1119.28755
211.587	1321.08144
211.809	-1102.13857
212.03	-5954.64281
212.252	1030.92621
212.473	-959.38104
212.695	-17787.57457
212.916	-3469.58574
213.138	-1534.86699
213.359	-954.06272
213.581	-1442.98493
213.802	-845.58819
214.024	-1354.4988
214.245	-11513.70943
214.466	-1113.96315
214.688	-1387.76537
214.909	-1019.81742
215.131	-2630.6177
215.352	-3549.10346
215.573	-1055.5573
215.795	-1854.36474
216.016	-1450.14794
216.237	-2911.66016
216.459	-1471.893
216.68	-1150.78016
216.901	-1451.33887
217.122	10930.19394
217.344	-984.03799
217.565	-1290.07789
217.786	-1317.64931
218.007	-882.82659
218.228	-1209.79632
218.45	-1148.08222
218.671	-1060.85019
218.892	-987.64443
219.113	-1512.60247
219.334	-70.61552
219.555	-1418.94741
219.776	-1530.66581
219.997	-1245.5196
220.219	17601.91555
220.44	-1187.15557
220.661	-3328.67219
220.882	-963.60216
221.103	1476.13833
221.324	-2778.18815
221.545	-1130.12267
221.766	-1281.27359
221.987	-1877.73796
222.208	-2009.32772
222.429	-735.73372
222.65	-1288.31675
222.87	-1735.33402
223.091	-3285.32498
223.312	3076.81458
223.533	-1169.68622
223.754	-1591.61123
223.975	-2263.81615
224.196	9123.92197
224.417	-8033.02398
224.637	4084.97713
224.858	227.82617
225.079	-1773.21934
225.3	27253.97745
225.521	-1039.38855
225.741	-5339.48914
225.962	7524.95247
226.183	396.79631
226.404	-3601.51019
226.624	2458.126
226.845	-85921.61923
227.066	-635414.81401
227.286	875.83383
227.507	294.32088
227.728	266.05567
227.948	678.5514
228.169	167.3555
228.389	172.45048
228.61	98.02193
228.831	135.23259
229.051	10.08327
229.272	72.78437
229.492	102.10679
229.713	30.10857
229.933	70.65218
230.154	62.58815
230.374	100.39307
230.595	74.88706
230.815	44.60191
231.036	72.68624
231.256	-10.22582
231.477	132.33778
231.697	72.05253
231.917	81.78717
232.138	116.02743
232.358	238.7347
232.579	189.87424
232.799	30.34007
233.019	195.00063
233.24	236.78268
233.46	81.26417
233.68	124.281
233.901	78.85301
234.121	49.65909
234.341	23.42131
234.561	-9.65053
234.782	40.99609
235.002	131.31356
235.222	0.5732
235.442	114.67265
235.662	55.07869
235.883	112.68655
236.103	100.20926
236.323	69.41291
236.543	53.61875
236.763	72.627
236.983	82.05229
237.203	76.58632
237.423	116.04105
237.643	168.37748
237.864	152.0818
238.084	34.6102
238.304	47.90222
238.524	82.82835
238.744	70.94054
238.964	131.53128
239.184	113.29453
239.404	126.54324
239.624	62.15682
239.843	108.5272
240.063	62.51543
240.283	40.46231
240.503	45.30339
240.723	45.58177
240.943	26.9739
241.163	33.59258
241.383	23.80613
241.603	13.65084
241.822	14.95389
242.042	11.62792
242.262	14.08483
242.482	15.8434
242.702	16.45183
242.921	5.4632
243.141	11.39496
243.361	10.20609
243.581	15.69799
243.8	12.86547
244.02	8.11357
244.24	15.36202
244.459	14.17046
244.679	29.17117
244.899	19.12044
245.118	23.02256
245.338	20.73653
245.558	22.9271
245.777	14.22319
245.997	17.33594
246.216	17.88472
246.436	9.6554
246.655	7.06569
246.875	5.67117
247.094	10.21326
247.314	3.75415
247.533	6.27644
247.753	7.09497
247.972	5.33257
248.192	2.25829
248.411	3.38935
248.631	5.58426
248.85	6.85829
249.07	6.68189
249.289	9.84192
249.508	7.20536
249.728	11.72423
249.947	11.28826
250.166	14.3949
250.386	7.46003
250.605	11.03862
250.824	19.60364
251.044	12.81402
251.263	39.3041
251.482	22.59551
251.701	19.69158
251.921	0.50171
252.14	6.08314
252.359	7.23372
252.578	16.48182
252.798	6.18177
253.017	14.14645
253.236	6.97838
253.455	8.44976
253.674	18.03345
253.893	8.12282
254.112	13.36898
254.331	19.1017
254.551	16.01195
254.77	7.83262
254.989	22.54995
255.208	18.85116
255.427	26.80301
255.646	21.94296
255.865	33.45062
256.084	14.89345
256.303	18.16536
256.522	22.59758
256.741	5.6752
256.96	5.47744
257.179	14.34613
257.397	18.31187
257.616	10.22908
257.835	10.49456
258.054	25.06315
258.273	17.44312
258.492	17.64346
258.711	11.90788
258.93	5.18014
259.148	7.86049
259.367	7.25562
259.586	9.21405
259.805	4.2155
260.023	7.904
260.242	5.68061
260.461	4.49853
260.68	2.22603
260.898	6.5073
261.117	2.41464
261.336	1.68348
261.554	5.53046
261.773	5.6988
261.992	1.19457
262.21	5.71528
262.429	6.6294
262.648	10.70116
262.866	12.76988
263.085	9.26495
263.303	7.87893
263.522	13.8462
263.74	13.56638
263.959	23.81523
264.178	12.23153
264.396	10.94704
264.615	8.06623
264.833	17.53129
265.051	15.54705
265.27	17.25765
265.488	17.76843
265.707	11.00092
265.925	17.1795
266.144	8.37533
266.362	9.67186
266.58	9.24445
266.799	8.04762
267.017	9.83562
267.235	8.65131
267.454	5.95414
267.672	3.19109
267.89	6.85345
268.109	7.74062
268.327	7.17857
268.545	1.66082
268.763	6.50354
268.982	3.27561
269.2	7.69924
269.418	5.17697
269.636	3.74109
269.854	7.13181
270.073	5.34115
270.291	3.03282
270.509	3.07827
270.727	7.16769
270.945	11.94158
271.163	11.60511
271.381	2.68652
271.599	5.24184
271.817	7.80175
272.036	3.12318
272.254	5.43376
272.472	3.90082
272.69	3.98405
272.908	4.3008
273.126	6.39384
273.344	8.50126
273.562	3.06782
273.779	4.48493
273.997	6.82217
274.215	6.4865
274.433	4.63183
274.651	7.18987
274.869	6.98665
275.087	4.45177
275.305	6.92387
275.523	4.21825
275.74	4.82192
275.958	9.02806
276.176	12.75896
276.394	4.13606
276.612	5.34008
276.829	4.9334
277.047	4.79371
277.265	5.10789
277.483	5.65635
277.7	6.74658
277.918	5.42496
278.136	10.53407
278.353	4.97638
278.571	2.79033
278.789	7.73175
279.006	2.18979
279.224	4.74895
279.442	7.95381
279.659	6.11929
279.877	3.6133
280.094	8.78392
280.312	1.99545
280.529	5.78953
280.747	2.08534
280.964	4.81037
281.182	9.11021
281.399	4.90798
281.617	5.84691
281.834	4.23809
282.052	3.13986
282.269	5.26254
282.487	4.40858
282.704	3.7937
282.921	3.69195
283.139	5.5256
283.356	6.82328
283.574	6.43999
283.791	3.13776
284.008	8.33881
284.226	5.18442
284.443	5.58753
284.66	7.06782
284.877	5.89653
285.095	3.7558
285.312	2.83447
285.529	1.68179
285.746	1.6398
285.964	3.4568
286.181	2.41548
286.398	3.22037
286.615	4.39412
286.832	4.38332
287.05	1.15097
287.267	3.07567
287.484	3.23465
287.701	4.48317
287.918	4.13999
288.135	4.29921
288.352	2.00761
288.569	2.44764
288.786	4.08463
289.003	3.0869
289.22	4.8947
289.437	2.78699
289.654	4.77519
289.871	4.8172
290.088	4.88769
290.305	3.91436
290.522	3.29878
290.739	3.39545
290.956	5.0189
291.173	5.7847
291.39	5.53864
291.607	3.8856
291.824	3.1257
292.04	2.23511
292.257	4.79402
292.474	5.33012
292.691	3.50823
292.908	1.68424
293.125	2.94366
293.341	1.99473
293.558	8.1994
293.775	3.65286
293.992	3.51079
294.208	1.58372
294.425	2.45088
294.642	3.13022
294.858	4.21063
295.075	1.26895
295.292	3.36356
295.508	4.11897
295.725	5.6851
295.942	2.96522
296.158	2.04726
296.375	3.47663
296.591	2.6745
296.808	2.70533
297.024	3.23421
297.241	3.5344
297.458	3.79562
297.674	0.37512
297.891	3.01411
298.107	2.42148
298.323	1.88225
298.54	4.22369
298.756	2.16006
298.973	1.05371
299.189	4.60495
299.406	1.94441
299.622	4.60429
299.838	4.72376
300.055	4.27148
300.271	1.07153
300.487	1.84254
300.704	1.97147
300.92	1.3264
301.136	6.26639
301.353	4.64737
301.569	3.3202
301.785	3.57007
302.001	4.27992
302.218	3.9256
302.434	3.92349
302.65	1.41024
302.866	2.54591
303.083	6.32814
303.299	6.33639
303.515	3.2986
303.731	3.5061
303.947	1.33494
304.163	2.19515
304.379	3.36008
304.595	3.81
304.812	2.26887
305.028	1.99916
305.244	2.60607
305.46	4.18583
305.676	4.33357
305.892	5.44777
306.108	3.9565
306.324	2.68039
306.54	6.04836
306.756	4.22716
306.972	4.0015
307.187	2.89527
307.403	5.87413
307.619	2.33726
307.835	5.05147
308.051	5.43765
308.267	1.72333
308.483	4.70202
308.699	3.97652
308.914	3.21972
309.13	3.39814
309.346	0.89341
309.562	1.64329
309.778	1.01318
309.993	4.04131
310.209	2.96258
310.425	1.48941
310.641	2.65609
310.856	1.73457
311.072	1.6615
311.288	3.00649
311.503	3.20105
311.719	0.69627
311.935	0.46959
312.15	3.45439
312.366	3.02167
312.581	3.8947
312.797	2.93599
313.013	4.09868
313.228	2.17054
313.444	3.16038
313.659	1.86406
313.875	3.67282
314.09	2.93413
314.306	5.18235
314.521	4.49197
314.737	4.12941
314.952	3.52741
315.168	3.24316
315.383	3.77168
315.599	2.92486
315.814	2.72404
316.029	4.57713
316.245	1.42591
316.46	1.14574
316.675	5.20235
316.891	6.00711
317.106	7.67357
317.321	4.28789
317.537	4.02046
317.752	4.28032
317.967	4.88896
318.183	2.35049
318.398	2.914
318.613	4.76232
318.828	5.49737
319.043	4.5318
319.259	2.93554
319.474	3.64896
319.689	5.1861
319.904	0.73096
320.119	4.6862
320.334	3.88016
320.549	2.82247
320.765	5.10046
320.98	3.89847
321.195	4.98453
321.41	3.19778
321.625	4.68433
321.84	6.03232
322.055	6.27315
322.27	2.43585
322.485	1.794
322.7	3.96493
322.915	5.15255
323.13	2.22162
323.345	5.55443
323.56	4.26257
323.775	4.47538
323.989	4.16403
324.204	3.71837
324.419	4.51763
324.634	1.42684
324.849	3.26722
325.064	6.37163
325.279	4.78752
325.493	4.1492
325.708	4.74015
325.923	2.28196
326.138	2.54712
326.352	5.82309
326.567	4.72841
326.782	2.85896
326.997	2.36069
327.211	4.41328
327.426	4.13439
327.641	2.97011
327.855	1.18642
328.07	4.24655
328.285	5.9936
328.499	3.17392
328.714	3.79806
328.928	4.75575
329.143	3.3248
329.358	5.16153
329.572	4.89656
329.787	5.4719
330.001	7.49831
330.216	1.7255
330.43	5.97569
330.645	6.18568
330.859	4.86097
331.074	2.44664
331.288	3.8072
331.503	5.84157
331.717	1.99406
331.931	3.66004
332.146	3.69429
332.36	6.57157
332.575	4.46506
332.789	3.87059
333.003	3.26741
333.218	4.48101
333.432	2.38875
333.646	4.61281
333.86	5.9498
334.075	6.28822
334.289	2.68202
334.503	1.88597
334.717	4.38226
334.932	4.26359
335.146	5.2295
335.36	2.87553
335.574	4.30693
335.788	4.32806
336.003	5.17015
336.217	4.63777
336.431	4.30266
336.645	2.79434
336.859	1.78362
337.073	3.41459
337.287	3.81663
337.501	2.15146
337.715	3.94884
337.929	4.54907
338.143	1.85402
338.357	3.60262
338.571	2.38888
338.785	4.30856
338.999	2.71373
339.213	2.76436
339.427	1.41207
339.641	5.20524
339.855	3.05379
340.069	2.51023
340.283	4.94563
340.497	5.92925
340.711	4.19733
340.924	3.03384
341.138	1.92112
341.352	1.51574
341.566	3.65297
341.78	0.71503
341.993	2.5834
342.207	2.00463
342.421	3.7008
342.635	3.31482
342.848	2.60485
343.062	0.50807
343.276	2.4411
343.49	6.53415
343.703	2.44968
343.917	4.63646
344.131	4.72578
344.344	2.38525
344.558	2.57233
344.771	2.09946
344.985	5.00742
345.199	5.58751
345.412	3.58772
345.626	3.82993
345.839	1.04864
346.053	1.77393
346.266	1.95959
346.48	4.28837
346.693	3.69759
346.907	3.85551
347.12	2.05559
347.334	3.57086
347.547	3.7684
347.76	2.79871
347.974	4.87397
348.187	3.7056
348.401	2.92169
348.614	2.38828
348.827	2.84769
349.041	3.98845
349.254	1.05382
349.467	3.09864
349.681	1.48182
349.894	2.51545
350.107	4.9653
350.32	5.75321
350.534	1.34179
350.747	2.73248
350.96	1.87096
351.173	2.23319
351.386	2.6695
351.6	2.52805
351.813	2.25293
352.026	3.10335
352.239	1.35663
352.452	2.88472
352.665	4.34538
352.878	2.71457
353.092	6.08224
353.305	3.9817
353.518	3.31575
353.731	2.01783
353.944	4.51509
354.157	2.27416
354.37	1.92375
354.583	1.82211
354.796	0.82543
355.009	4.72153
355.222	3.11664
355.435	3.08636
355.647	4.42798
355.86	1.66303
356.073	2.98117
356.286	2.38063
356.499	4.05057
356.712	3.41582
356.925	3.39672
357.138	4.19287
357.35	1.59007
357.563	2.39774
357.776	2.96092
357.989	2.44268
358.201	3.43745
358.414	3.06925
358.627	4.134
358.84	2.44593
359.052	1.47404
359.265	1.44359
359.478	4.04301
359.69	-0.40895
359.903	3.71472
360.116	3.7494
360.328	0.75782
360.541	3.80435
360.753	1.46042
360.966	1.91024
361.179	2.05666
361.391	1.88944
361.604	1.32118
361.816	1.95182
362.029	1.55883
362.241	1.44717
362.454	1.79651
362.666	1.47343
362.879	2.45633
363.091	2.06915
363.304	1.49917
363.516	2.40563
363.728	0.97132
363.941	3.23657
364.153	1.84936
364.366	-0.09773
364.578	1.37573
364.79	3.00288
365.003	2.44131
365.215	1.88677
365.427	3.1175
365.639	3.99666
365.852	2.81856
366.064	4.70526
366.276	1.78229
366.488	3.10527
366.701	2.01183
366.913	2.3494
367.125	2.39278
367.337	1.72994
367.549	1.91505
367.762	2.56186
367.974	2.57128
368.186	1.62415
368.398	3.81117
368.61	3.32717
368.822	3.42248
369.034	2.54002
369.246	3.16813
369.458	5.4948
369.67	1.37871
369.882	4.86175
370.094	0.24325
370.306	4.42881
370.518	2.15456
370.73	1.8416
370.942	1.64279
371.154	2.22282
371.366	1.83878
371.578	2.74625
371.79	1.45669
372.002	3.90568
372.214	4.549
372.425	2.76864
372.637	4.16974
372.849	2.77055
373.061	-0.01721
373.273	3.09272
373.484	3.18035
373.696	3.50002
373.908	-0.13593
374.12	3.96701
374.331	2.97572
374.543	1.56984
374.755	1.29829
374.967	2.6186
375.178	3.35995
375.39	2.20262
375.602	2.49486
375.813	0.86758
376.025	0.9935
376.236	2.1746
376.448	2.55524
376.66	1.88155
376.871	1.76465
377.083	3.51389
377.294	3.4955
377.506	1.74283
377.717	3.93559
377.929	2.519
378.14	1.35853
378.352	3.01428
378.563	2.89559
378.775	3.85685
378.986	1.61163
379.197	2.18649
379.409	1.64607
379.62	3.3251
379.832	2.63006
380.043	2.15317
380.254	2.54843
380.466	0.85363
380.677	5.62152
380.888	5.08874
381.1	5.53539
381.311	5.20056
381.522	2.34217
381.733	6.06837
381.945	2.05457
382.156	2.48791
382.367	1.63881
382.578	5.78969
382.789	5.36869
383.001	1.84466
383.212	4.00647
383.423	4.25306
383.634	3.73227
383.845	2.79261
384.056	1.8284
384.267	2.29677
384.478	2.1653
384.69	1.06735
384.901	2.95308
385.112	2.89374
385.323	4.03009
385.534	2.73581
385.745	2.5274
385.956	3.05085
386.167	1.21139
386.378	2.93753
386.588	0.92408
386.799	1.60473
387.01	0.39723
387.221	3.31362
387.432	2.1378
387.643	4.52448
387.854	2.00147
388.065	1.94732
388.275	1.98797
388.486	1.76929
388.697	2.19158
388.908	1.90385
389.119	3.66357
389.329	4.39114
389.54	2.33615
389.751	2.75722
389.962	3.64499
390.172	2.67724
390.383	1.51468
390.594	1.59617
390.804	1.59198
391.015	1.6544
391.226	2.29298
391.436	2.8784
391.647	2.58222
391.858	2.98098
392.068	0.35932
392.279	0.87607
392.489	2.19586
392.7	3.32075
392.91	0.8305
393.121	1.32596
393.331	2.70205
393.542	3.54505
393.752	2.32956
393.963	2.30242
394.173	2.07441
394.384	2.9212
394.594	2.07948
394.804	0.93098
395.015	2.33946
395.225	2.92443
395.436	0.95294
395.646	2.87324
395.856	1.26217
396.067	0.82713
396.277	3.295
396.487	2.67898
396.697	2.06069
396.908	3.13616
397.118	3.15823
397.328	2.40842
397.538	3.509
397.749	1.47877
397.959	3.30161
398.169	3.07389
398.379	0.80754
398.589	3.24585
398.8	2.30633
399.01	2.072
399.22	1.87393
399.43	4.83172
399.64	1.82762
399.85	2.92284
400.06	2.02478
400.27	1.60672
400.48	2.38514
400.69	3.9402
400.9	1.73706
401.11	1.59789
401.32	3.41472
401.53	1.78867
401.74	4.26023
401.95	3.27214
402.16	1.19163
402.37	2.95771
402.58	1.69068
402.79	3.1253
403	3.4601
403.209	1.71444
403.419	3.19974
403.629	1.6967
403.839	3.1381
404.049	3.17751
404.258	1.34585
404.468	1.10053
404.678	2.77438
404.888	2.91572
405.097	1.1526
405.307	2.10007
405.517	2.73874
405.727	2.42964
405.936	1.80297
406.146	2.38607
406.356	3.71502
406.565	2.28587
406.775	1.73482
406.984	1.77952
407.194	4.08249
407.404	2.44801
407.613	2.76673
407.823	3.22224
408.032	3.58504
408.242	3.57677
408.451	1.82711
408.661	2.22874
408.87	4.48308
409.08	1.9338
409.289	2.83806
409.499	2.48636
409.708	2.63745
409.918	0.35468
410.127	2.42549
410.336	4.11742
410.546	3.07952
410.755	2.06161
410.964	1.9108
411.174	1.77069
411.383	3.07376
411.592	3.08681
411.802	1.38545
412.011	3.64687
412.22	2.55694
412.429	3.9392
412.639	3.96946
412.848	4.08371
413.057	4.31155
413.266	3.96614
413.475	2.57334
413.685	3.56901
413.894	3.5997
414.103	4.00211
414.312	3.42929
414.521	2.61934
414.73	2.89285
414.939	4.65241
415.148	3.32236
415.357	2.88084
415.566	2.14323
415.776	2.25318
415.985	2.00853
416.194	3.39071
416.403	4.2056
416.611	1.25347
416.82	1.76979
417.029	2.40041
417.238	1.66392
417.447	1.31395
417.656	1.79182
417.865	1.48153
418.074	1.67481
418.283	2.00148
418.492	2.7165
418.7	2.59498
418.909	3.20897
419.118	2.13019
419.327	2.28426
419.536	2.11551
419.744	1.34293
419.953	2.61422
420.162	2.58271
420.371	1.18589
420.579	0.94406
420.788	2.19845
420.997	2.06358
421.205	2.13457
421.414	1.65091
421.623	1.53475
421.831	1.25261
422.04	2.21187
422.249	1.28274
422.457	2.01427
422.666	1.336
422.874	2.54911
423.083	2.49258
423.291	2.35027
423.5	1.88481
423.708	2.08895
423.917	2.39962
424.125	1.90237
424.334	1.53186
424.542	3.52179
424.751	2.59275
424.959	2.51541
425.167	2.81809
425.376	2.75392
425.584	2.09355
425.793	2.54182
426.001	1.6739
426.209	2.83084
426.418	1.804
426.626	2.04709
426.834	1.74795
427.042	2.55141
427.251	1.94652
427.459	3.31302
427.667	2.83472
427.875	1.62725
428.084	2.27987
428.292	3.91476
428.5	3.04207
428.708	1.92801
428.916	1.82995
429.124	2.9322
429.333	2.50053
429.541	2.46242
429.749	2.80381
429.957	2.60311
430.165	4.77723
430.373	1.7328
430.581	3.10906
430.789	3.91838
430.997	2.07524
431.205	2.27321
431.413	2.69541
431.621	2.428
431.829	3.32224
432.037	2.34952
432.245	2.75776
432.453	2.91724
432.661	2.26326
432.869	4.39299
433.076	1.66325
433.284	2.39544
433.492	2.91998
433.7	3.57747
433.908	2.02212
434.116	2.60219
434.323	2.66708
434.531	2.56395
434.739	2.97131
434.947	3.49821
435.154	3.13999
435.362	2.92198
435.57	2.56624
435.778	2.40698
435.985	3.16598
436.193	2.46837
436.401	3.7365
436.608	2.84636
436.816	2.45612
437.023	4.39991
437.231	4.32819
437.439	3.03163
437.646	3.28674
437.854	3.24255
438.061	3.39736
438.269	2.52196
438.476	3.32896
438.684	2.85631
438.891	2.22903
439.099	1.92793
439.306	1.34809
439.514	1.74842
439.721	2.78509
439.929	1.9883
440.136	2.88909
440.343	2.73073
440.551	2.2013
440.758	3.9434
440.965	2.91153
441.173	2.66599
441.38	1.99551
441.587	2.87831
441.795	2.14593
442.002	2.90332
442.209	2.98073
442.416	3.42233
442.624	3.16296
442.831	3.26326
443.038	2.37699
443.245	1.99103
443.452	2.42438
443.66	3.6917
443.867	2.05467
444.074	2.4517
444.281	2.18809
444.488	2.6162
444.695	2.63153
444.902	2.15506
445.109	2.95932
445.316	2.24411
445.523	2.07795
445.73	1.60514
445.937	2.41527
446.144	2.74304
446.351	2.54307
446.558	1.74037
446.765	2.79751
446.972	3.11761
447.179	2.15981
447.386	3.42774
447.593	2.10156
447.8	3.45965
448.007	2.25705
448.214	2.58017
448.42	2.17556
448.627	3.70072
448.834	2.52777
449.041	2.5171
449.248	2.58222
449.454	3.74872
449.661	4.81568
449.868	2.83348
450.075	2.43488
450.281	1.2069
450.488	2.01484
450.695	2.57536
450.901	2.19572
451.108	2.82354
451.315	3.92766
451.521	2.86678
451.728	3.78882
451.935	2.47687
452.141	2.84859
452.348	2.95888
452.554	2.73738
452.761	2.63193
452.967	4.25702
453.174	3.14433
453.38	3.1659
453.587	1.94757
453.793	3.01252
454	3.88416
454.206	4.80357
454.413	4.2149
454.619	3.38212
454.825	2.4358
455.032	3.60402
455.238	3.99416
455.445	1.97798
455.651	3.30727
455.857	1.56665
456.064	2.91087
456.27	2.85098
456.476	2.92771
456.682	1.89734
456.889	3.4308
457.095	3.60401
457.301	5.34536
457.507	3.15722
457.714	3.13156
457.92	2.73131
458.126	2.26552
458.332	2.62524
458.538	2.27109
458.744	2.28299
458.951	2.24223
459.157	3.72032
459.363	2.51287
459.569	2.24615
459.775	3.16462
459.981	1.75795
460.187	2.34095
460.393	2.94741
460.599	3.47092
460.805	2.59146
461.011	2.74934
461.217	3.59267
461.423	3.89651
461.629	2.6064
461.835	3.70593
462.041	2.86747
462.247	4.54168
462.453	3.05787
462.658	3.11158
462.864	3.89533
463.07	3.56225
463.276	3.59865
463.482	3.57126
463.688	4.43235
463.893	2.90409
464.099	2.94496
464.305	4.77375
464.511	2.89333
464.716	3.30715
464.922	3.71952
465.128	2.6871
465.333	5.03926
465.539	3.75876
465.745	2.83359
465.95	3.67297
466.156	5.82344
466.362	4.51314
466.567	3.08815
466.773	2.92382
466.978	4.79718
467.184	2.53722
467.389	1.42292
467.595	3.94365
467.8	2.48457
468.006	4.51576
468.211	4.37064
468.417	2.55555
468.622	3.84466
468.828	4.2347
469.033	3.58871
469.239	6.16489
469.444	2.93139
469.649	4.36799
469.855	3.23497
470.06	3.65816
470.266	2.42974
470.471	4.00597
470.676	3.80552
470.881	2.20519
471.087	4.58446
471.292	4.94677
471.497	2.38777
471.703	3.10219
471.908	3.03899
472.113	3.64465
472.318	4.2119
472.523	2.62181
472.729	3.7372
472.934	3.87821
473.139	3.05821
473.344	4.09825
473.549	4.46691
473.754	2.80976
473.959	5.21975
474.164	2.81121
474.369	3.36496
474.575	4.30645
474.78	3.67914
474.985	2.91761
475.19	2.05178
475.395	2.68735
475.6	3.36783
475.804	4.71697
476.009	3.3337
476.214	3.53312
476.419	2.98713
476.624	1.67738
476.829	2.49038
477.034	3.74547
477.239	2.39102
477.444	3.37965
477.648	3.60943
477.853	3.68864
478.058	2.74846
478.263	2.57653
478.468	2.12557
478.672	2.14383
478.877	4.03387
479.082	4.70876
479.287	3.33641
479.491	3.23593
479.696	1.98051
479.901	3.98917
480.105	3.61954
480.31	2.55417
480.515	2.75667
480.719	4.91535
480.924	2.27025
481.128	1.86174
481.333	2.81321
481.538	2.8924
481.742	2.19988
481.947	2.65765
482.151	2.63726
482.356	2.03271
482.56	2.55158
482.765	2.37577
482.969	3.02116
483.174	3.41762
483.378	4.09584
483.582	3.63644
483.787	4.2717
483.991	4.09537
484.196	4.18244
484.4	4.10032
484.604	4.47177
484.809	3.52244
485.013	3.78872
485.217	3.29269
485.422	2.9907
485.626	2.73342
485.83	2.61807
486.034	2.53953
486.239	2.6334
486.443	2.5933
486.647	2.28597
486.851	2.95723
487.055	3.27485
487.26	2.59941
487.464	2.91946
487.668	2.44221
487.872	2.24406
488.076	3.00813
488.28	2.58125
488.484	2.42754
488.688	2.38361
488.892	2.76742
489.096	2.72884
489.3	2.21371
489.504	2.19581
489.708	2.78042
489.912	2.80912
490.116	2.7891
490.32	1.85094
490.524	2.50906
490.728	2.3901
490.932	2.23239
491.136	1.92635
491.34	2.90267
491.544	2.8739
491.748	2.41172
491.951	2.55213
492.155	2.34437
492.359	2.63096
492.563	1.87675
492.767	1.8299
492.97	2.12762
493.174	1.90076
493.378	2.30591
493.582	1.85711
493.785	2.59346
493.989	2.86957
494.193	3.00452
494.396	2.65379
494.6	3.65527
494.804	2.88215
495.007	2.42066
495.211	2.4206
495.414	2.86518
495.618	2.91335
495.822	3.76542
496.025	2.80873
496.229	3.43328
496.432	1.95186
496.636	2.62629
496.839	2.31773
497.043	4.00823
497.246	2.75472
497.45	2.19577
497.653	2.23384
497.856	2.90155
498.06	1.53814
498.263	2.3806
498.467	1.96071
498.67	3.51424
498.873	3.04221
499.077	2.39893
499.28	2.29717
499.483	3.17327
499.686	3.36339
499.89	3.28526
500.093	3.48805
500.296	2.25957
500.499	3.96696
500.703	2.96349
500.906	3.04375
501.109	4.74866
501.312	2.87735
501.515	2.83664
501.719	3.30927
501.922	4.46069
502.125	3.27446
502.328	2.8751
502.531	1.95627
502.734	3.05313
502.937	1.27983
503.14	2.95906
503.343	1.81148
503.546	2.49913
503.749	2.32946
503.952	3.41832
504.155	2.02571
504.358	3.42675
504.561	2.82268
504.764	1.91858
504.967	2.73675
505.17	2.9066
505.373	4.3552
505.576	3.1269
505.778	3.52675
505.981	2.57887
506.184	3.96811
506.387	1.66294
506.59	4.46778
506.793	3.95385
506.995	3.41704
507.198	1.25548
507.401	2.88866
507.604	3.24543
507.806	1.84059
508.009	1.76572
508.212	3.10516
508.414	2.1241
508.617	1.8936
508.82	2.25655
509.022	3.47298
509.225	2.71817
509.427	1.17979
509.63	3.65517
509.833	2.51747
510.035	2.46834
510.238	1.32793
510.44	3.56241
510.643	0.82376
510.845	4.6478
511.048	3.07544
511.25	2.29884
511.453	2.59152
511.655	3.01867
511.858	2.25348
512.06	3.32452
512.262	2.60333
512.465	3.15637
512.667	1.83569
512.869	1.77367
513.072	2.963
513.274	3.5076
513.476	3.10261
513.679	3.36146
513.881	1.72677
514.083	4.30161
514.286	2.11579
514.488	2.43764
514.69	2.0488
514.892	1.83207
515.094	3.12353
515.297	2.53069
515.499	3.00791
515.701	2.16968
515.903	4.18219
516.105	3.95325
516.307	3.32951
516.509	1.03152
516.711	1.58059
516.913	2.706
517.116	2.29837
517.318	2.04262
517.52	3.36477
517.722	2.73997
517.924	1.23679
518.126	2.50257
518.328	1.4685
518.529	2.37111
518.731	3.32963
518.933	1.48967
519.135	2.01146
519.337	2.9453
519.539	2.44457
519.741	0.95743
519.943	2.14997
520.145	2.12051
520.346	2.623
520.548	2.10013
520.75	2.79892
520.952	2.1489
521.153	2.51962
521.355	3.05304
521.557	1.79952
521.759	2.961
521.96	2.78977
522.162	1.91778
522.364	3.4978
522.565	1.96956
522.767	3.31868
522.969	3.93049
523.17	3.06272
523.372	3.18596
523.573	1.75585
523.775	2.33765
523.977	1.76282
524.178	3.90228
524.38	1.8502
524.581	2.96805
524.783	2.01099
524.984	2.68179
525.186	2.03215
525.387	2.58121
525.589	2.01171
525.79	1.70797
525.991	1.21787
526.193	2.1294
526.394	0.75702
526.596	1.9874
526.797	1.65568
526.998	1.41936
527.2	0.66628
527.401	1.86224
527.602	1.40843
527.803	2.46951
528.005	1.69801
528.206	2.00628
528.407	2.05459
528.608	1.65874
528.81	1.60068
529.011	1.06454
529.212	2.08505
529.413	1.72192
529.614	1.57229
529.815	1.96036
530.017	1.87139
530.218	1.72966
530.419	1.44438
530.62	1.8874
530.821	2.03335
531.022	1.13351
531.223	2.33562
531.424	2.51684
531.625	2.20068
531.826	2.12857
532.027	1.8699
532.228	2.57916
532.429	1.66152
532.63	1.44898
532.831	1.52543
533.032	1.60648
533.233	1.84432
533.433	1.68657
533.634	1.93694
533.835	1.35243
534.036	1.11027
534.237	1.50218
534.438	1.41206
534.638	1.17442
534.839	1.42467
535.04	2.45883
535.241	1.70381
535.441	3.0918
535.642	2.36008
535.843	1.23218
536.043	1.11457
536.244	1.45897
536.445	1.37694
536.645	2.47277
536.846	1.74894
537.047	2.77281
537.247	1.35146
537.448	1.90473
537.648	1.98165
537.849	2.17782
538.049	2.11133
538.25	3.08603
538.451	2.51684
538.651	1.84735
538.851	2.87906
539.052	3.44021
539.252	3.08114
539.453	2.45832
539.653	2.07407
539.854	2.3125
540.054	1.8449
540.254	2.57222
540.455	2.25738
540.655	1.2774
540.855	1.58613
541.056	1.8397
541.256	1.30088
541.456	2.23451
541.657	1.24557
541.857	2.25766
542.057	0.93414
542.257	1.06896
542.458	1.86252
542.658	2.25357
542.858	1.01482
543.058	2.59498
543.258	2.25442
543.458	1.28988
543.659	1.04394
543.859	2.63818
544.059	2.5337
544.259	2.05066
544.459	2.82442
544.659	1.76902
544.859	2.74867
545.059	1.85611
545.259	2.72183
545.459	2.55789
545.659	3.04032
545.859	2.43526
546.059	2.62368
546.259	1.62829
546.459	0.8466
546.659	1.53386
546.859	2.68585
547.059	2.58619
547.258	2.83082
547.458	2.60622
547.658	1.3552
547.858	1.78445
548.058	2.89157
548.258	2.63367
548.457	2.03401
548.657	5.58288
548.857	2.76058
549.057	4.01275
549.256	3.5204
549.456	3.09927
549.656	1.45033
549.855	5.30939
550.055	3.32829
550.255	5.24927
550.454	4.10455
550.654	4.74082
550.853	4.99861
551.053	4.66833
551.253	4.00089
551.452	3.81212
551.652	2.25432
551.851	1.44078
552.051	2.90723
552.25	2.73839
552.45	2.43884
552.649	2.80288
552.849	2.2599
553.048	3.24025
553.248	3.69889
553.447	2.38304
553.646	4.2888
553.846	4.93088
554.045	4.60625
554.244	2.47631
554.444	5.53592
554.643	2.90855
554.842	5.25909
555.042	6.27493
555.241	3.28762
555.44	2.81456
555.64	3.84762
555.839	5.61065
556.038	4.59963
556.237	3.31811
556.436	3.39069
556.636	4.23273
556.835	2.81337
557.034	5.32868
557.233	3.82158
557.432	2.70768
557.631	5.14023
557.83	3.63673
558.029	3.41449
558.228	3.78716
558.427	2.80672
558.626	4.42067
558.825	3.25391
559.024	4.44138
559.223	6.19395
559.422	3.9339
559.621	4.64647
559.82	1.28298
560.019	4.11283
560.218	3.49039
560.417	0.60874
560.616	3.64668
560.815	7.63945
561.014	2.17735
561.212	4.83485
561.411	4.18414
561.61	1.9511
561.809	3.6804
562.008	5.8194
562.206	3.94019
562.405	4.53694
562.604	3.83403
562.803	3.83545
563.001	3.74083
563.2	2.3192
563.399	4.75051
563.597	2.63764
563.796	4.19576
563.995	2.33965
564.193	4.85629
564.392	3.27033
564.59	6.61177
564.789	1.47285
564.988	3.42223
565.186	3.83122
565.385	3.34837
565.583	2.99246
565.782	3.34421
565.98	2.92287
566.179	3.24001
566.377	1.82889
566.575	2.21546
566.774	4.39944
566.972	4.40166
567.171	5.64981
567.369	4.97385
567.567	3.56498
567.766	3.96404
567.964	1.2928
568.162	4.48549
568.361	5.08027
568.559	3.85336
568.757	4.59987
568.956	4.19969
569.154	3.62539
569.352	5.08292
569.55	3.73095
569.748	3.7612
569.947	2.82903
570.145	2.88609
570.343	2.35282
570.541	5.20895
570.739	1.97008
570.937	3.82551
571.135	4.16423
571.333	5.51143
571.532	5.27021
571.73	3.87215
571.928	4.67758
572.126	4.01865
572.324	2.95789
572.522	4.99856
572.72	6.38507
572.918	3.37993
573.116	3.79655
573.313	3.66757
573.511	3.31347
573.709	3.44392
573.907	4.16665
574.105	3.30701
574.303	1.74755
574.501	2.03184
574.699	3.75283
574.896	3.86994
575.094	4.4954
575.292	2.34093
575.49	4.73343
575.688	3.551
575.885	5.52309
576.083	5.83547
576.281	4.32457
576.478	3.5472
576.676	4.7013
576.874	3.00962
577.071	3.80806
577.269	7.1205
577.467	4.00577
577.664	4.42893
577.862	5.23788
578.059	3.65224
578.257	5.6547
578.455	4.46735
578.652	4.41851
578.85	2.45197
579.047	4.77548
579.245	4.73738
579.442	4.83207
579.64	4.9536
579.837	2.38401
580.034	7.90504
580.232	4.39075
580.429	3.67876
580.627	5.9527
580.824	6.95318
581.021	5.60849
581.219	4.75854
581.416	3.75699
581.613	7.077
581.811	6.91501
582.008	3.94764
582.205	6.26047
582.402	5.40305
582.6	8.31524
582.797	5.55949
582.994	6.22952
583.191	6.39223
583.388	5.634
583.586	6.61137
583.783	6.99903
583.98	4.11629
584.177	5.61339
584.374	1.27539
584.571	5.40276
584.768	5.43181
584.965	5.06549
585.162	6.56805
585.359	8.07079
585.556	5.51933
585.753	5.98821
585.95	3.81795
586.147	4.42317
586.344	6.27044
586.541	5.03174
586.738	3.86868
586.935	5.50298
587.132	4.50879
587.329	7.27178
587.526	5.10455
587.722	12.73121
587.919	3.38242
588.116	5.96984
588.313	7.68353
588.51	8.77187
588.706	5.19588
588.903	6.18601
589.1	7.17872
589.297	9.84148
589.493	5.33079
589.69	6.62598
589.887	4.71745
590.083	3.65278
590.28	4.08892
590.477	6.93728
590.673	6.52112
590.87	7.5237
591.067	4.98341
591.263	6.5488
591.46	6.46205
591.656	5.5585
591.853	8.0119
592.049	4.39746
592.246	5.12065
592.442	7.71251
592.639	6.91531
592.835	3.80473
593.032	6.60789
593.228	3.66326
593.425	3.69793
593.621	3.57926
593.817	5.63293
594.014	4.46051
594.21	5.65202
594.406	6.85954
594.603	5.95809
594.799	4.91151
594.995	2.12324
595.192	7.01062
595.388	4.58112
595.584	4.48299
595.78	3.0958
595.977	8.30426
596.173	7.77144
596.369	4.89776
596.565	3.68734
596.761	3.0028
596.957	6.65486
597.154	3.78909
597.35	4.08281
597.546	3.79343
597.742	5.57798
597.938	5.49604
598.134	3.68302
598.33	5.57563
598.526	7.95742
598.722	6.47326
598.918	8.57529
599.114	6.94829
599.31	4.81615
599.506	6.48522
599.702	5.03018
599.898	6.86931
600.094	8.00476
600.29	7.74457
600.485	7.52391
600.681	5.66719
600.877	9.18755
601.073	6.38564
601.269	9.5504
601.465	8.48204
601.66	5.12409
601.856	3.36989
602.052	8.78243
602.248	5.4354
602.443	2.96151
602.639	3.98028
602.835	4.4861
603.03	4.4849
603.226	6.93568
603.422	4.02036
603.617	4.92381
603.813	4.67433
604.009	4.23279
604.204	6.55513
604.4	2.70884
604.595	6.33279
604.791	3.58715
604.986	5.40356
605.182	3.96932
605.377	4.50803
605.573	4.57331
605.768	5.48372
605.964	6.11904
606.159	6.72173
606.355	7.91012
606.55	5.6029
606.746	7.76326
606.941	6.07902
607.136	9.43929
607.332	11.03118
607.527	4.51176
607.722	6.93193
607.918	6.50495
608.113	4.79407
608.308	7.01378
608.503	6.82439
608.699	6.75052
608.894	6.5407
609.089	4.38113
609.284	6.1611
609.479	4.67924
609.675	6.62856
609.87	5.19028
610.065	6.37088
610.26	7.51459
610.455	7.28857
610.65	5.60782
610.845	6.38438
611.04	7.79025
611.235	6.33163
611.43	5.88841
611.625	4.32139
611.82	9.03017
612.015	5.28989
612.21	9.57984
612.405	4.54657
612.6	10.66744
612.795	9.05329
612.99	8.63157
613.185	5.12934
613.38	5.63595
613.575	7.7731
613.77	12.32539
613.965	4.57973
614.159	5.71997
614.354	9.67515
614.549	9.66202
614.744	8.75004
614.938	5.47433
615.133	5.05772
615.328	9.95192
615.523	10.0384
615.717	13.3078
615.912	6.74476
616.107	7.88328
616.301	6.92049
616.496	6.60009
616.691	11.43289
616.885	8.92303
617.08	12.42032
617.274	10.46379
617.469	12.55808
617.664	9.26842
617.858	6.86502
618.053	8.2742
618.247	7.21225
618.442	3.70527
618.636	10.19024
618.831	6.91209
619.025	6.89403
619.219	13.13905
619.414	1.42421
619.608	8.09003
619.803	6.08132
619.997	12.2366
620.191	10.52293
620.386	9.3694
620.58	8.60133
620.774	4.54996
620.969	5.351
621.163	8.5775
621.357	5.85745
621.551	7.78089
621.746	8.51387
621.94	8.18801
622.134	15.95735
622.328	12.69832
622.522	5.08888
622.716	10.73568
622.911	9.94049
623.105	10.1424
623.299	8.88927
623.493	15.40788
623.687	6.69614
623.881	7.66057
624.075	9.95801
624.269	10.72483
624.463	4.59643
624.657	5.14911
624.851	9.29368
625.045	10.47014
625.239	10.45312
625.433	6.56279
625.627	11.16787
625.821	6.88325
626.015	6.4905
626.209	7.87821
626.403	4.96117
626.596	8.35871
626.79	9.05957
626.984	5.12759
627.178	8.40902
627.372	8.60511
627.565	9.21873
627.759	4.53947
627.953	5.14768
628.147	9.02049
628.34	9.10206
628.534	12.37084
628.728	7.54586
628.921	10.22235
629.115	9.6592
629.309	10.39168
629.502	10.61644
629.696	9.42794
629.89	8.40561
630.083	9.03111
630.277	9.80732
630.47	13.21947
630.664	8.31193
630.857	5.91333
631.051	10.68058
631.244	11.58474
631.438	11.58456
631.631	7.51832
631.825	11.51817
632.018	10.96118
632.212	13.55657
632.405	11.87551
632.598	7.4695
632.792	9.47507
632.985	3.83618
633.178	8.08394
633.372	9.20104
633.565	9.30422
633.758	12.20533
633.952	7.21669
634.145	7.06878
634.338	8.84947
634.531	7.9947
634.724	7.42371
634.918	9.37293
635.111	8.73633
635.304	8.55415
635.497	14.43651
635.69	9.9099
635.883	12.14517
636.077	6.44929
636.27	10.47584
636.463	9.81603
636.656	10.86459
636.849	8.54183
637.042	10.03062
637.235	13.6927
637.428	11.42263
637.621	10.67082
637.814	13.40715
638.007	14.20932
638.2	14.0126
638.393	15.47518
638.586	6.98652
638.778	8.98062
638.971	10.69495
639.164	15.14236
639.357	11.48854
639.55	14.1219
639.743	12.43694
639.935	12.78283
640.128	16.03461
640.321	12.39885
640.514	11.3482
640.707	17.84137
640.899	12.92018
641.092	6.7088
641.285	30.52052
641.477	4.84896
641.67	17.35789
641.863	14.41937
642.055	11.91515
642.248	11.64044
642.441	10.36182
642.633	12.55519
642.826	16.14902
643.018	15.19675
643.211	16.48075
643.403	15.6751
643.596	17.81635
643.788	16.98986
643.981	10.4405
644.173	14.05158
644.366	10.40548
644.558	6.36393
644.751	14.19285
644.943	8.17827
645.135	17.17891
645.328	17.20666
645.52	14.41602
645.712	14.94593
645.905	21.96932
646.097	8.88043
646.289	13.1028
646.482	17.61639
646.674	10.364
646.866	15.41486
647.058	14.01231
647.251	9.30337
647.443	10.38267
647.635	11.91939
647.827	9.20011
648.019	9.60572
648.211	12.70437
648.404	12.70679
648.596	17.12345
648.788	13.25138
648.98	13.60177
649.172	13.83556
649.364	13.3205
649.556	7.04795
649.748	19.76403
649.94	10.01471
650.132	14.03664
650.324	9.75887
650.516	10.03613
650.708	15.78352
650.9	8.26746
651.092	11.33639
651.284	7.43002
651.476	9.23346
651.667	14.22661
651.859	16.29764
652.051	12.34594
652.243	12.3982
652.435	10.43574
652.627	13.4849
652.818	13.79949
653.01	7.87176
653.202	9.63398
653.394	11.19185
653.585	13.98124
653.777	27.29388
653.969	17.2427
654.16	16.41062
654.352	10.46951
654.544	12.87741
654.735	16.36324
654.927	13.53803
655.118	18.50734
655.31	15.89707
655.502	15.62663
655.693	11.22776
655.885	15.18337
656.076	18.33071
656.268	13.134
656.459	16.99875
656.651	17.97318
656.842	11.36432
657.034	10.49464
657.225	15.50587
657.416	17.91701
657.608	17.5319
657.799	12.29125
657.99	15.883
658.182	9.50565
658.373	10.17293
658.564	14.25628
658.756	11.84513
658.947	11.2263
659.138	8.65859
659.33	9.80251
659.521	8.9169
659.712	11.00952
659.903	10.90721
660.094	9.84585
660.286	6.88589
660.477	18.13206
660.668	14.11075
660.859	12.27408
661.05	8.19486
661.241	14.85887
661.432	14.89601
661.623	12.11484
661.814	12.12065
662.006	7.44951
662.197	15.36894
662.388	17.11887
662.579	14.69205
662.77	24.58093
662.96	23.90315
663.151	17.33447
663.342	8.11281
663.533	16.00882
663.724	13.33092
663.915	20.57485
664.106	13.99549
664.297	21.33313
664.488	16.90615
664.678	13.20522
664.869	16.9779
665.06	18.20546
665.251	16.11197
665.442	16.84465
665.632	11.55637
665.823	22.36155
666.014	4.50903
666.204	17.54016
666.395	19.77072
666.586	25.90439
666.776	18.51247
666.967	21.87386
667.158	15.6948
667.348	21.59059
667.539	11.13482
667.729	18.31447
667.92	12.53795
668.111	18.80331
668.301	17.55606
668.492	13.70119
668.682	14.69269
668.873	13.72296
669.063	10.3346
669.253	14.93161
669.444	18.16302
669.634	14.41072
669.825	22.4511
670.015	19.24273
670.206	12.9364
670.396	23.41926
670.586	14.94327
670.777	17.3603
670.967	7.70332
671.157	15.33824
671.347	13.10722
671.538	22.02844
671.728	17.64578
671.918	23.27585
672.108	20.27358
672.299	16.33242
672.489	17.52999
672.679	13.59075
672.869	17.76006
673.059	22.99494
673.249	19.29589
673.44	12.63077
673.63	15.35223
673.82	19.99952
674.01	11.95962
674.2	18.3718
674.39	29.51867
674.58	18.61507
674.77	17.60248
674.96	16.61666
675.15	34.61883
675.34	21.66384
675.53	16.82877
675.72	15.28438
675.91	10.18261
676.099	24.43914
676.289	26.77201
676.479	21.20649
676.669	16.00358
676.859	19.62793
677.049	12.57412
677.238	17.50002
677.428	25.16124
677.618	17.49028
677.808	21.02112
677.997	18.81839
678.187	11.7234
678.377	16.2653
678.567	14.63101
678.756	13.79939
678.946	15.18545
679.136	10.25077
679.325	12.05901
679.515	11.82075
679.704	9.70775
679.894	17.2893
680.084	15.66733
680.273	20.17717
680.463	11.54498
680.652	11.77047
680.842	14.47831
681.031	18.33892
681.221	11.77735
681.41	17.20427
681.6	14.71262
681.789	18.79584
681.978	21.65344
682.168	17.16522
682.357	17.55508
682.547	19.5766
682.736	17.53292
682.925	22.31198
683.115	21.82324
683.304	21.13939
683.493	19.10099
683.682	20.31533
683.872	18.34428
684.061	24.42851
684.25	21.31756
684.439	27.02748
684.629	21.09302
684.818	34.64638
685.007	18.11719
685.196	17.29048
685.385	26.19263
685.574	21.71356
685.763	20.44317
685.952	19.55537
686.142	13.18746
686.331	25.56929
686.52	10.90024
686.709	26.59889
686.898	26.09918
687.087	21.99811
687.276	27.04815
687.465	23.71607
687.654	17.33499
687.842	27.18121
688.031	12.68498
688.22	24.88461
688.409	19.97203
688.598	20.12964
688.787	32.07803
688.976	20.17638
689.165	27.59197
689.353	17.62255
689.542	21.83763
689.731	22.8317
689.92	29.18695
690.108	25.58531
690.297	18.3545
690.486	20.75033
690.675	24.04145
690.863	28.95762
691.052	28.64191
691.241	23.16815
691.429	22.02549
691.618	28.78646
691.806	15.38994
691.995	19.48943
692.184	20.91314
692.372	18.23909
692.561	21.49615
692.749	21.43847
692.938	34.04009
693.126	24.77839
693.315	19.63392
693.503	25.26812
693.692	25.44929
693.88	27.661
694.068	34.57914
694.257	20.72328
694.445	24.9105
694.634	11.88991
694.822	28.61378
695.01	29.63734
695.199	29.54859
695.387	32.53576
695.575	30.09632
695.763	22.63492
695.952	20.39365
696.14	14.10094
696.328	19.24498
696.516	22.42481
696.705	23.66476
696.893	23.26181
697.081	12.76554
697.269	24.20076
697.457	15.98598
697.645	14.03187
697.833	24.12992
698.021	15.25358
698.21	16.28604
698.398	18.09304
698.586	13.01624
698.774	12.02569
698.962	16.23784
699.15	12.62985
699.338	10.84068
699.526	20.1058
699.714	14.85708
699.901	16.02934
700.089	23.11551
700.277	15.6173
700.465	18.44698
700.653	24.2266
700.841	23.39417
701.029	16.49377
701.217	27.29576
701.404	22.55509
701.592	29.7587
701.78	33.59004
701.968	19.77744
702.155	21.16145
702.343	15.96935
702.531	30.85865
702.718	26.54448
702.906	21.98616
703.094	20.36464
703.281	31.43945
703.469	22.75527
703.657	31.71469
703.844	44.67204
704.032	34.93114
704.219	21.53976
704.407	27.30296
704.595	33.68256
704.782	26.76223
704.97	22.90646
705.157	23.00548
705.345	35.93664
705.532	42.02276
705.719	28.302
705.907	35.74347
706.094	25.85964
706.282	37.14921
706.469	24.00942
706.656	26.90033
706.844	24.60696
707.031	32.8829
707.218	27.39318
707.406	37.06512
707.593	30.57353
707.78	30.82686
707.968	25.61377
708.155	20.06625
708.342	31.03552
708.529	29.78372
708.716	28.39968
708.904	38.44563
709.091	31.21913
709.278	19.51126
709.465	38.22444
709.652	38.4502
709.839	35.51626
710.026	29.05614
710.213	16.61078
710.4	29.85044
710.587	32.58956
710.774	36.44447
710.961	34.39902
711.148	27.97515
711.335	34.94312
711.522	26.83901
711.709	29.61042
711.896	43.12398
712.083	34.85818
712.27	22.10592
712.457	29.44183
712.644	18.16667
712.831	42.91109
713.017	29.58845
713.204	33.61534
713.391	24.00655
713.578	37.32193
713.765	37.79598
713.951	33.48291
714.138	51.93311
714.325	34.28809
714.512	28.95328
714.698	24.11468
714.885	40.89202
715.072	31.6276
715.258	31.03213
715.445	24.74841
715.631	38.75917
715.818	13.52659
716.005	25.49426
716.191	33.04293
716.378	28.23476
716.564	36.89342
716.751	23.47976
716.937	26.4967
717.124	38.23465
717.31	25.25313
717.497	42.2999
717.683	25.54454
717.869	49.55812
718.056	27.15639
718.242	34.84961
718.429	32.304
718.615	22.73982
718.801	32.54782
718.988	40.36437
719.174	36.09363
719.36	30.70461
719.547	43.93242
719.733	36.05727
719.919	37.08247
720.105	38.52906
720.291	33.54266
720.478	36.35078
720.664	32.28595
720.85	30.23065
721.036	60.04385
721.222	46.0102
721.408	33.65261
721.595	51.84034
721.781	51.63172
721.967	44.25942
722.153	50.59333
722.339	43.00931
722.525	39.89638
722.711	27.76722
722.897	23.5812
723.083	32.87444
723.269	45.88306
723.455	58.03929
723.641	62.28317
723.827	38.06595
724.012	40.18871
724.198	33.21406
724.384	47.12713
724.57	41.12395
724.756	23.96618
724.942	21.77989
725.127	46.05467
725.313	50.86089
725.499	49.98592
725.685	54.46339
725.87	42.2991
726.056	28.83885
726.242	49.78985
726.428	23.02669
726.613	44.00825
726.799	34.69775
726.985	27.11672
727.17	23.91702
727.356	51.37533
727.541	29.02718
727.727	34.00225
727.913	43.598
728.098	31.62365
728.284	43.3515
728.469	25.38479
728.655	28.59688
728.84	43.77312
729.026	44.55892
729.211	46.85391
729.397	39.40662
729.582	42.34712
729.767	35.48897
729.953	40.34106
730.138	47.35912
730.323	16.88528
730.509	26.7702
730.694	54.97732
730.879	40.94217
731.065	38.60626
731.25	59.29344
731.435	43.62142
731.621	24.12163
731.806	31.14398
731.991	40.68172
732.176	24.77689
732.361	49.82611
732.547	38.71042
732.732	22.40165
732.917	59.53851
733.102	26.08435
733.287	30.51064
733.472	37.73129
733.657	38.547
733.842	23.53806
734.027	34.64373
734.212	37.03901
734.397	29.33457
734.582	36.77982
734.767	45.19287
734.952	51.9145
735.137	15.8718
735.322	54.03326
735.507	42.44296
735.692	42.60667
735.877	63.20663
736.062	56.84466
736.247	43.0132
736.431	38.80264
736.616	53.07904
736.801	43.6026
736.986	40.51967
737.171	33.09808
737.355	30.39186
737.54	53.04582
737.725	39.59552
737.909	73.78091
738.094	33.78987
738.279	50.69048
738.463	37.87299
738.648	47.52443
738.833	45.41331
739.017	61.49978
739.202	37.83178
739.386	39.91857
739.571	25.23823
739.756	48.4322
739.94	40.34558
740.125	51.70413
740.309	33.95001
740.494	48.81747
740.678	43.52822
740.863	46.54956
741.047	44.32675
741.231	56.37703
741.416	32.8593
741.6	60.09713
741.785	33.40214
741.969	52.57979
742.153	57.20353
742.338	19.71063
742.522	42.76459
742.706	52.66823
742.89	30.736
743.075	44.40449
743.259	60.72701
743.443	54.50922
743.627	55.6753
743.812	73.03761
743.996	25.38783
744.18	43.33776
744.364	37.96237
744.548	78.51536
744.732	43.07712
744.916	55.09364
745.1	51.3578
745.285	42.73825
745.469	52.4121
745.653	67.52454
745.837	28.72313
746.021	78.46376
746.205	61.15817
746.389	45.77295
746.573	42.82188
746.757	65.90079
746.94	39.35615
747.124	58.83941
747.308	32.19424
747.492	63.87135
747.676	38.15818
747.86	75.15174
748.044	39.97492
748.227	25.52228
748.411	95.2018
748.595	50.53874
748.779	35.39509
748.963	51.11939
749.146	48.20997
749.33	36.82405
749.514	34.20924
749.697	59.93067
749.881	38.46081
750.065	32.43341
750.248	47.12472
750.432	78.65982
750.616	45.57969
750.799	31.5703
750.983	73.53182
751.166	86.6697
751.35	29.75431
751.533	62.76312
751.717	62.55735
751.9	68.60381
752.084	40.35695
752.267	35.22127
752.451	37.44766
752.634	47.29936
752.818	54.00968
753.001	57.4291
753.184	61.93981
753.368	53.12271
753.551	9.01164
753.734	36.64212
753.918	73.17054
754.101	37.54766
754.284	57.88028
754.467	41.21172
754.651	37.88883
754.834	36.55254
755.017	63.53115
755.2	60.29565
755.384	33.12206
755.567	59.40468
755.75	63.08451
755.933	44.16994
756.116	52.27301
756.299	42.45478
756.482	34.94323
756.665	57.68718
756.848	47.82838
757.032	54.44289
757.215	29.73169
757.398	37.16004
757.581	37.27608
757.764	87.87212
757.947	45.79613
758.129	66.3221
758.312	14.08842
758.495	47.17796
758.678	46.34763
758.861	43.80183
759.044	75.43342
759.227	37.84356
759.41	37.74652
759.592	56.96367
759.775	47.18536
759.958	62.87512
760.141	32.42434
760.324	81.58205
760.506	69.9416
760.689	60.46252
760.872	85.07014
761.054	58.20932
761.237	43.55693
761.42	55.15782
761.602	63.20018
761.785	53.8515
761.968	61.60872
762.15	77.00766
762.333	46.05949
762.515	54.33834
762.698	40.51139
762.88	56.19859
763.063	50.27225
763.245	54.79405
763.428	33.06592
763.61	36.71808
763.793	27.34471
763.975	44.18058
764.158	36.86082
764.34	34.8194
764.522	29.65524
764.705	36.89586
764.887	57.51239
765.069	24.91665
765.252	51.76636
765.434	55.62354
765.616	46.04363
765.799	37.04195
765.981	57.99709
766.163	35.2845
766.345	59.46807
766.528	41.11293
766.71	17.28928
766.892	51.28753
767.074	66.89386
767.256	44.73929
767.438	77.4418
767.62	53.04736
767.802	86.27658
767.985	60.64055
768.167	84.58835
768.349	41.683
768.531	61.8226
768.713	57.42331
768.895	65.73864
769.077	58.60293
769.259	94.87596
769.441	142.29521
769.623	70.28651
769.804	84.99737
769.986	80.06311
770.168	98.14625
770.35	122.47902
770.532	84.69557
770.714	94.15674
770.896	100.22748
771.077	39.19785
771.259	96.26732
771.441	78.56234
771.623	106.98413
771.804	135.25785
771.986	37.87226
772.168	62.62499
772.35	102.55325
772.531	146.45522
772.713	78.39856
772.894	110.38956
773.076	75.0006
773.258	68.36137
773.439	101.46275
773.621	117.13571
773.802	53.2167
773.984	63.62359
774.166	87.97784
774.347	116.36509
774.529	106.22957
774.71	33.96952
774.891	76.47041
775.073	67.29266
775.254	114.88597
775.436	63.25234
775.617	132.10396
775.799	65.11954
775.98	122.98643
776.161	127.75736
776.343	126.01285
776.524	78.17826
776.705	70.68451
776.886	36.11561
777.068	84.29421
777.249	153.87761
777.43	141.6873
777.611	53.06237
777.793	74.21786
777.974	124.08764
778.155	68.65636
778.336	63.29371
778.517	143.52951
778.698	63.18342
778.879	35.99828
779.061	21.77193
779.242	87.3629
779.423	93.83152
779.604	66.48957
779.785	73.95645
779.966	87.71188
780.147	104.27277
780.328	112.66419
780.509	159.06409
780.69	104.50632
780.871	59.7923
781.051	45.39075
781.232	84.69892
781.413	82.41385
781.594	73.96468
781.775	69.1095
781.956	63.67012
782.137	35.47793
782.317	63.87783
782.498	91.22707
782.679	78.68995
782.86	85.18839
783.04	64.31167
783.221	90.84897
783.402	140.05483
783.583	86.28795
783.763	106.29531
783.944	69.49678
784.124	45.96004
784.305	134.36686
784.486	96.13317
784.666	75.62288
784.847	40.30272
785.027	161.40028
785.208	59.99385
785.388	62.6814
785.569	68.39163
785.749	74.53049
785.93	64.25182
786.11	44.40455
786.291	93.69927
786.471	86.85164
786.652	103.84529
786.832	79.81308
787.012	89.56798
787.193	50.0356
787.373	84.59158
787.553	71.01549
787.734	85.5511
787.914	69.65784
788.094	97.47654
788.275	90.8738
788.455	69.53244
788.635	47.21607
788.815	84.52353
788.995	53.59354
789.176	42.65451
789.356	57.37001
789.536	72.19033
789.716	93.50598
789.896	59.94792
790.076	66.80116
790.256	82.75211
790.436	25.91548
790.616	58.98429
790.796	81.94373
790.976	68.25825
791.156	60.98173
791.336	97.13238
791.516	90.01191
791.696	71.88984
791.876	42.78003
792.056	83.81491
792.236	104.3055
792.416	100.89183
792.596	91.44676
792.776	91.10895
792.956	97.24581
793.135	125.06413
793.315	52.07611
793.495	116.56542
793.675	95.00451
793.854	104.87735
794.034	106.22508
794.214	52.17906
794.394	106.29567
794.573	116.34277
794.753	83.09896
794.933	57.0689
795.112	88.29998
795.292	105.23424
795.472	135.83223
795.651	50.07807
795.831	79.6637
796.01	71.30033
796.19	71.87675
796.369	75.44888
796.549	97.51045
796.728	74.97487
796.908	44.01686
797.087	55.66813
797.267	68.9039
797.446	50.14817
797.626	97.28372
797.805	92.6766
797.984	57.76489
798.164	93.5772
798.343	58.14197
798.522	84.20725
798.702	79.07555
798.881	43.34398
799.06	71.60023
799.239	30.52444
799.419	54.07532
799.598	126.66472
799.777	92.8958
799.956	114.55904
800.136	67.05801
800.315	56.99437
800.494	92.61176
800.673	111.69153
800.852	94.43781
801.031	106.32757
801.21	93.59808
801.389	65.14062
801.568	81.30031
801.747	138.30807
801.926	79.47355
802.105	129.18051
802.284	66.49056
802.463	124.05946
802.642	86.3275
802.821	88.79878
803	121.95798
803.179	109.9492
803.358	116.83158
803.537	62.44466
803.716	83.99636
803.895	64.84602
804.073	76.31305
804.252	66.87104
804.431	95.55768
804.61	77.85825
804.789	119.09819
804.967	70.3843
805.146	63.24868
805.325	140.88527
805.503	94.31287
805.682	42.72683
805.861	160.32368
806.039	119.58077
806.218	65.34858
806.397	91.45337
806.575	85.70629
806.754	94.48434
806.932	56.34883
807.111	130.53534
807.289	108.17844
807.468	82.23726
807.646	115.61159
807.825	97.84134
808.003	86.08082
808.182	110.15646
808.36	89.26056
808.539	61.18795
808.717	134.80171
808.895	59.06106
809.074	92.34049
809.252	79.86651
809.43	100.0649
809.609	119.52274
809.787	135.55354
809.965	78.3612
810.144	86.95445
810.322	78.05395
810.5	96.78801
810.678	75.78329
810.856	159.65673
811.035	119.58813
811.213	112.84637
811.391	131.60121
811.569	91.87485
811.747	192.81917
811.925	129.94529
812.103	64.58471
812.281	80.85614
812.459	147.24964
812.637	143.84534
812.816	118.62329
812.994	151.21258
813.171	121.8779
813.349	102.53348
813.527	132.2811
813.705	135.61572
813.883	173.50704
814.061	123.54451
814.239	153.43251
814.417	162.929
814.595	100.61842
814.773	103.26109
814.95	93.07879
815.128	107.43959
815.306	77.59612
815.484	88.17082
815.662	62.20902
815.839	58.07491
816.017	69.14912
816.195	135.04668
816.372	81.70576
816.55	118.19047
816.728	140.29059
816.905	78.52331
817.083	146.26237
817.261	87.95479
817.438	164.29828
817.616	159.10388
817.793	75.12988
817.971	112.91643
818.148	117.33766
818.326	138.2608
818.503	104.56187
818.681	137.6851
818.858	77.96941
819.036	92.95544
819.213	101.54275
819.391	70.60208
819.568	67.70585
819.745	62.24046
819.923	112.52632
820.1	72.14502
820.277	64.07109
820.455	75.03336
820.632	77.20667
820.809	79.74939
820.986	50.48296
821.164	39.02998
821.341	33.35349
821.518	47.04142
821.695	32.45467
821.872	30.08094
822.05	24.90576
822.227	17.06658
822.404	18.34346
822.581	20.77539
822.758	16.94458
822.935	16.75413
823.112	20.15639
823.289	14.33553
823.466	19.67452
823.643	17.69108
823.82	22.96865
823.997	20.37932
824.174	25.66007
824.351	35.29095
824.528	34.0954
824.705	31.50092
824.882	35.86905
825.059	49.72087
825.236	32.20556
825.412	36.81423
825.589	46.71011
825.766	67.79288
825.943	42.82505
826.12	51.97358
826.296	32.48122
826.473	42.82651
826.65	43.37879
826.827	54.4827
827.003	34.52801
827.18	36.88844
827.357	43.5388
827.533	38.17125
827.71	18.19481
827.887	31.75913
828.063	37.04259
828.24	31.91447
828.416	44.28678
828.593	34.77318
828.769	50.93833
828.946	59.62983
829.122	61.06068
829.299	57.34721
829.475	32.29181
829.652	60.61207
829.828	107.15175
830.005	64.77586
830.181	93.94475
830.357	63.19187
830.534	97.9704
830.71	74.51258
830.886	97.71889
831.063	92.62542
831.239	128.69904
831.415	50.22722
831.592	125.8693
831.768	76.26101
831.944	62.62041
832.12	129.13683
832.296	120.83245
832.473	103.87855
832.649	73.21276
832.825	97.5259
833.001	55.72776
833.177	87.17985
833.353	75.36424
833.529	40.11672
833.705	59.26713
833.881	42.49438
834.058	41.02784
834.234	44.0402
834.41	43.4086
834.586	32.35299
834.761	41.96527
834.937	47.56067
835.113	46.51788
835.289	41.56663
835.465	50.89788
835.641	44.17788
835.817	52.3329
835.993	98.04693
836.169	48.55053
836.344	73.84926
836.52	84.67059
836.696	84.07076
836.872	63.33138
837.048	179.38851
837.223	72.43401
837.399	156.81073
837.575	114.21994
837.75	105.78861
837.926	152.88631
838.102	261.19979
838.277	193.22741
838.453	251.90484
838.628	234.68581
838.804	99.18221
838.98	236.98026
839.155	114.94378
839.331	161.50457
839.506	117.11119
839.682	109.54132
839.857	145.17856
840.033	168.80775
840.208	78.5609
840.384	39.25799
840.559	83.93969
840.734	127.00984
840.91	187.30364
841.085	105.20026
841.26	105.32322
841.436	91.3131
841.611	96.67806
841.786	138.90139
841.962	188.85934
842.137	115.53161
842.312	68.13785
842.487	100.13305
842.663	89.36766
842.838	106.46516
843.013	385.62262
843.188	178.60857
843.363	139.51712
843.538	330.57897
843.714	332.30227
843.889	333.14046
844.064	359.88709
844.239	296.06531
844.414	401.66012
844.589	232.50182
844.764	490.82652
844.939	419.67689
845.114	516.08275
845.289	538.81181
845.464	537.58576
845.639	423.26848
845.814	175.26215
845.989	249.48169
846.163	259.39938
846.338	309.83534
846.513	493.66495
846.688	295.94804
846.863	270.75626
847.038	234.9006
847.212	306.90128
847.387	300.3062
847.562	306.62142
847.737	405.30811
847.911	140.65618
848.086	175.76163
848.261	592.38591
848.435	248.02714
848.61	418.12975
848.785	173.16522
848.959	433.57525
849.134	599.15448
849.308	724.14535
849.483	312.84566
849.658	515.65733
849.832	248.91915
850.007	205.63971
850.181	979.6333
850.356	245.23613
850.53	749.06413
850.705	182.05252
850.879	120.75704
851.053	261.62388
851.228	255.31305
851.402	400.06247
851.577	463.77492
851.751	698.70725
851.925	303.39885
852.099	139.74199
852.274	194.22203
852.448	268.67203
852.622	427.40212
852.797	290.26365
852.971	318.29923
853.145	316.17397
853.319	1026.3882
853.493	485.16572
853.668	239.81217
853.842	721.18406
854.016	510.46655
854.19	639.87849
854.364	308.75991
854.538	350.38078
854.712	560.30842
854.886	289.906
855.06	231.5727
855.234	94.5071
855.408	595.44814
855.582	579.41779
855.756	506.34013
855.93	632.19421
856.104	334.09223
856.278	465.54514
856.452	309.80494
856.626	406.44853
856.8	931.36769
856.973	397.82474
857.147	377.24598
857.321	421.77171
857.495	527.11605
857.669	336.01496
857.842	267.34287
858.016	506.16598
858.19	191.67921
858.364	1288.3242
858.537	271.1549
858.711	328.90514
858.885	256.33721
859.058	247.55564
859.232	121.35249
859.405	149.79312
859.579	467.69157
859.753	409.61646
859.926	236.74294
860.1	139.66452
860.273	287.39382
860.447	579.57713
860.62	307.82401
860.794	715.42138
860.967	324.5334
861.141	616.5659
861.314	1026.52641
861.487	432.9208
861.661	606.84688
861.834	672.49575
862.008	475.99497
862.181	352.61913
862.354	345.25085
862.528	396.69853
862.701	301.45046
862.874	173.41853
863.047	273.80658
863.221	278.77852
863.394	138.54349
863.567	555.75176
863.74	107.59618
863.913	453.61823
864.087	450.34815
864.26	533.5144
864.433	284.44672
864.606	879.42101
864.779	284.13799
864.952	142.46313
865.125	244.22356
865.298	295.95913
865.471	288.79154
865.644	783.20728
865.817	523.17474
865.99	529.26918
866.163	693.09389
866.336	269.53981
866.509	261.48032
866.682	254.53823
866.855	587.32123
867.028	165.87783
867.2	416.65441
867.373	116.33946
867.546	325.59524
867.719	821.58406
867.892	437.30458
868.064	245.98842
868.237	367.91438
868.41	371.4282
868.583	161.55686
868.755	200.24319
868.928	288.93255
869.101	889.55851
869.273	528.66619
869.446	384.91771
869.619	625.14058
869.791	310.45514
869.964	522.31808
870.136	496.8883
870.309	398.62012
870.481	313.05511
870.654	162.71232
870.826	434.57752
870.999	235.94295
871.171	410.73761
871.344	240.15404
871.516	307.01801
871.689	224.04868
871.861	393.28553
872.033	227.51847
872.206	258.0932
872.378	460.43902
872.55	264.16699
872.723	164.36361
872.895	296.6032
873.067	509.33032
873.24	511.37938
873.412	263.84648
873.584	278.90461
873.756	265.78831
873.928	328.02645
874.101	360.01538
874.273	389.54678
874.445	124.3054
874.617	161.25263
874.789	321.20193
874.961	261.77958
875.133	396.91502
875.305	320.98704
875.477	191.50184
875.649	144.76527
875.821	177.32228
875.993	583.12069
876.165	198.29991
876.337	346.34086
876.509	285.16733
876.681	320.28264
876.853	362.89971
877.025	367.53567
877.197	196.71868
877.369	180.62804
877.541	444.61917
877.712	106.82896
877.884	186.88009
878.056	352.82115
878.228	180.49214
878.4	378.63569
878.571	192.93925
878.743	124.26146
878.915	316.99527
879.086	183.34924
879.258	215.6388
879.43	193.04715
879.601	171.48441
879.773	185.1737
879.945	39.61989
880.116	69.38005
880.288	41.25676
880.459	45.40219
880.631	32.93609
880.802	40.57418
880.974	36.71232
881.145	24.43996
881.317	32.92805
881.488	22.89422
881.66	25.27395
881.831	22.56732
882.002	32.64816
882.174	21.21877
882.345	29.5375
882.517	12.86215
882.688	36.60656
882.859	26.34082
883.03	47.75961
883.202	46.87159
883.373	39.81957
883.544	37.7578
883.715	66.45309
883.887	59.79582
884.058	48.85744
884.229	72.70197
884.4	74.05378
884.571	90.88617
884.742	73.71864
884.914	80.36279
885.085	130.3165
885.256	174.28011
885.427	149.41886
885.598	161.34579
885.769	173.73309
885.94	176.62371
886.111	107.26422
886.282	223.73918
886.453	153.98097
886.624	115.97234
886.795	222.15417
886.966	174.95664
887.136	231.80953
887.307	166.59393
887.478	376.92354
887.649	298.28001
887.82	313.59873
887.991	246.80404
888.161	315.25637
888.332	296.45754
888.503	124.70244
888.674	483.08536
888.844	577.51575
889.015	366.97319
889.186	158.9451
889.356	522.14861
889.527	145.7561
889.698	1029.55677
889.868	249.86571
890.039	350.46757
890.209	283.26267
890.38	379.667
890.551	320.37455
890.721	449.69893
890.892	447.67229
891.062	265.60008
891.233	325.27559
891.403	309.80155
891.574	199.19662
891.744	282.64628
891.914	342.89621
892.085	301.37144
892.255	102.05797
892.425	573.4619
892.596	372.84511
892.766	373.91149
892.936	472.42162
893.107	390.33157
893.277	190.28356
893.447	151.10471
893.618	115.34952
893.788	252.34918
893.958	127.98256
894.128	129.29631
894.298	147.42035
894.468	186.014
894.639	88.35012
894.809	52.78516
894.979	93.56676
895.149	107.05006
895.319	82.2364
895.489	125.686
895.659	159.24521
895.829	94.63795
895.999	97.04836
896.169	73.55254
896.339	93.20708
896.509	211.2534
896.679	227.77108
896.849	233.08849
897.019	341.24954
897.189	268.98836
897.358	244.67533
897.528	348.48283
897.698	106.17477
897.868	312.02906
898.038	883.05515
898.208	685.12978
898.377	127.95077
898.547	786.55365
898.717	993.95959
898.886	388.27855
899.056	607.90399
899.226	1436.48723
899.395	455.54252
899.565	832.88082
899.735	435.94274
899.904	1024.0879
900.074	991.48117
900.244	244.29389
900.413	1188.18319
900.583	244.5896
900.752	385.83582
900.922	2049.40651
901.091	44.06929
901.261	612.76977
901.43	652.6194
901.599	576.07521
901.769	7054.57673
901.938	704.70417
902.108	772.44003
902.277	1556.13635
902.446	224.38429
902.616	219.10991
902.785	305.78602
902.954	666.8323
903.124	466.78144
903.293	323.02198
903.462	167.96698
903.631	238.80978
903.801	177.89261
903.97	83.78736
904.139	146.61907
904.308	107.83627
904.477	85.38353
904.646	50.36159
904.816	62.78903
904.985	118.3455
905.154	180.98194
