Data from WindowProjectSample2_Transmission__1__00006.txt Node

Date: Sat May 03 22:21:19 EDT 2025
User: jessi
Spectrometer: SR400872
Trigger mode: 0
Integration Time (sec): 5.000010E-1
Scans to average: 10
Electric dark correction enabled: true
Nonlinearity correction enabled: true
Boxcar width: 0
XAxis mode: Wavelengths
Number of Pixels in Spectrum: 3648
>>>>>Begin Spectral Data<<<<<
184.909	-6514.64634
185.132	7533.79173
185.355	18769.46792
185.578	8799.63799
185.801	-1008.28211
186.024	-2029.74206
186.247	-4268.75739
186.47	-2523.86511
186.693	-247.17348
186.916	-149.39716
187.139	-4400.13243
187.362	-13923.70122
187.585	2032.81015
187.808	-3704.78781
188.031	187.97936
188.254	2992.83268
188.476	-3608.18829
188.699	-36994.54258
188.922	3074.59003
189.145	-7367.04807
189.368	1090.98286
189.591	1328.93813
189.813	1358.97234
190.036	-3634.48012
190.259	1960.44788
190.482	9852.39744
190.705	3300.90075
190.927	12118.74808
191.15	5870.49491
191.373	1627.51275
191.595	4962.52778
191.818	3080.63671
192.041	517.67263
192.263	2665.10775
192.486	-1708.40768
192.709	-11236.38256
192.931	5887.68435
193.154	-15184.83976
193.377	5625.12828
193.599	11440.87595
193.822	-1413.37711
194.044	1001.07935
194.267	1264.62208
194.489	65.68733
194.712	-6270.99847
194.934	4634.82265
195.157	-3257.86696
195.379	916.5457
195.602	1705.27639
195.824	10221.586
196.047	4464.5096
196.269	-10283.74647
196.492	-11212.34355
196.714	-4282.7901
196.936	-4335.52874
197.159	5981.58231
197.381	-722.33337
197.604	2204.08382
197.826	-14536.32195
198.048	3607.11943
198.271	2104.81229
198.493	1768.25243
198.715	2508.29095
198.938	-2948.8614
199.16	2322.5995
199.382	3321.24669
199.604	3841.90269
199.827	-1341.20411
200.049	-2151.65629
200.271	3586.46219
200.493	-3231.08811
200.715	8263.55668
200.938	3282.14719
201.16	-6441.2933
201.382	-150165.34438
201.604	-8146.31373
201.826	2302.76361
202.048	23282.0055
202.27	17635.32018
202.492	4861.60654
202.715	-5915.19284
202.937	-5957.12011
203.159	-44014.52373
203.381	2222.49597
203.603	4137.04604
203.825	-1612.26804
204.047	4559.15095
204.269	12393.91464
204.491	1574.382
204.713	8987.60135
204.935	6380.41204
205.156	-9167.76179
205.378	1025.36576
205.6	2961.91013
205.822	5109.30306
206.044	1646.15947
206.266	4817.56737
206.488	2505.13558
206.71	14957.7657
206.932	-11431.94719
207.153	-4447.38509
207.375	5713.6214
207.597	8923.73632
207.819	2900.30839
208.041	27450.09533
208.262	-1403.96701
208.484	-5049.59595
208.706	1123.76826
208.927	4226.67555
209.149	2255.63688
209.371	4340.00745
209.593	362.87837
209.814	3279.80965
210.036	2746.22284
210.258	1271.25218
210.479	840.57969
210.701	1439.33123
210.922	-9161.8867
211.144	3611.93469
211.366	1753.7599
211.587	1591.40513
211.809	8670.96772
212.03	3317.27391
212.252	2850.38207
212.473	6262.33027
212.695	1614.90183
212.916	3915.34756
213.138	1328.21881
213.359	-4617.12422
213.581	1737.42804
213.802	1230.79638
214.024	-11156.39661
214.245	-4176.23154
214.466	1078.56605
214.688	2753.88644
214.909	3505.65758
215.131	-10921.13087
215.352	2246.53467
215.573	14408.72269
215.795	2015.14626
216.016	3547.8946
216.237	-1072.16406
216.459	2529.12132
216.68	-16189.4697
216.901	3287.26729
217.122	-7970.2153
217.344	-2013.31071
217.565	-58779.06441
217.786	-103809.98361
218.007	548.68873
218.228	676.36689
218.45	16063.15997
218.671	518.72923
218.892	1667.88899
219.113	1282.07957
219.334	-1117.20493
219.555	4337.88176
219.776	6167.8384
219.997	5029.11425
220.219	4924.07835
220.44	1282.34798
220.661	-10769.89978
220.882	5613.16335
221.103	-10967.0078
221.324	1497.06989
221.545	3019.29075
221.766	2358.56951
221.987	1724.6434
222.208	657.07569
222.429	1637.58922
222.65	274.37023
222.87	859.80243
223.091	2788.37417
223.312	2027.37944
223.533	1035.58022
223.754	7195.64469
223.975	6475.8058
224.196	1068.1551
224.417	-23091.42088
224.637	668.66326
224.858	82.38702
225.079	9064.78404
225.3	1849.73492
225.521	2889.53113
225.741	731.85312
225.962	670.89333
226.183	318.10609
226.404	1142.11383
226.624	1297.61954
226.845	625.37434
227.066	643.14078
227.286	328.22666
227.507	180.77943
227.728	176.3605
227.948	281.2713
228.169	97.78577
228.389	89.91954
228.61	51.76689
228.831	68.87442
229.051	6.7088
229.272	41.67416
229.492	61.53798
229.713	18.20785
229.933	45.14032
230.154	38.68754
230.374	63.43034
230.595	44.14922
230.815	30.57194
231.036	50.75836
231.256	-7.72431
231.477	84.35381
231.697	52.47165
231.917	51.52515
232.138	74.50346
232.358	150.70305
232.579	128.14701
232.799	25.04047
233.019	117.80508
233.24	143.93218
233.46	54.02965
233.68	81.68807
233.901	53.95149
234.121	37.79718
234.341	11.14934
234.561	-3.80433
234.782	27.84338
235.002	87.4464
235.222	-1.47025
235.442	73.22863
235.662	38.71175
235.883	76.2575
236.103	64.90985
236.323	56.3006
236.543	36.31779
236.763	52.81543
236.983	54.30055
237.203	58.33962
237.423	81.28215
237.643	115.92471
237.864	95.22772
238.084	27.01929
238.304	36.128
238.524	63.08819
238.744	51.98133
238.964	87.64197
239.184	75.53571
239.404	82.87573
239.624	40.11234
239.843	66.58186
240.063	44.45438
240.283	28.94634
240.503	32.53862
240.723	29.94077
240.943	17.52836
241.163	23.25728
241.383	15.78717
241.603	9.20669
241.822	10.22912
242.042	8.18443
242.262	9.18545
242.482	11.03376
242.702	13.36219
242.921	4.54602
243.141	8.29211
243.361	7.95939
243.581	11.93592
243.8	10.18967
244.02	6.27827
244.24	12.53369
244.459	12.06213
244.679	22.88432
244.899	15.1875
245.118	19.1357
245.338	15.09947
245.558	17.78848
245.777	9.39207
245.997	11.97556
246.216	13.01976
246.436	7.72484
246.655	5.45982
246.875	4.00918
247.094	7.44198
247.314	2.76632
247.533	4.28094
247.753	5.28694
247.972	4.6962
248.192	1.81898
248.411	2.70696
248.631	4.74088
248.85	6.11232
249.07	5.41438
249.289	7.98951
249.508	6.19844
249.728	9.64515
249.947	10.28161
250.166	10.64185
250.386	6.8118
250.605	9.21919
250.824	14.65622
251.044	10.75814
251.263	29.34765
251.482	17.79572
251.701	14.68142
251.921	0.8468
252.14	4.62789
252.359	5.43034
252.578	12.70767
252.798	4.39699
253.017	10.92558
253.236	5.29678
253.455	7.25264
253.674	15.20663
253.893	7.04713
254.112	10.53098
254.331	14.74216
254.551	13.08167
254.77	5.63996
254.989	17.49792
255.208	13.33322
255.427	18.09646
255.646	16.46408
255.865	26.34995
256.084	10.24078
256.303	13.37563
256.522	17.67198
256.741	5.45155
256.96	3.68925
257.179	10.35617
257.397	14.28473
257.616	6.80781
257.835	8.27073
258.054	19.12229
258.273	11.95527
258.492	13.35762
258.711	7.96933
258.93	3.26209
259.148	5.60645
259.367	5.39275
259.586	6.59534
259.805	2.96148
260.023	5.92209
260.242	4.66236
260.461	3.35632
260.68	1.78018
260.898	5.36332
261.117	1.8858
261.336	1.04856
261.554	4.46532
261.773	5.07321
261.992	1.02176
262.21	4.60854
262.429	5.59702
262.648	8.80459
262.866	10.60679
263.085	6.88011
263.303	6.5248
263.522	11.01937
263.74	11.55325
263.959	19.08052
264.178	9.30751
264.396	8.5053
264.615	6.46958
264.833	14.16912
265.051	12.65536
265.27	12.29519
265.488	13.77646
265.707	8.51399
265.925	13.89615
266.144	6.13357
266.362	7.28976
266.58	7.16033
266.799	6.02047
267.017	6.86908
267.235	6.51898
267.454	4.09033
267.672	2.46518
267.89	5.27304
268.109	5.7162
268.327	5.58479
268.545	1.60395
268.763	5.22063
268.982	2.27421
269.2	6.57095
269.418	3.79924
269.636	3.46486
269.854	5.50954
270.073	4.16541
270.291	2.23627
270.509	2.15075
270.727	5.75918
270.945	9.08426
271.163	8.81583
271.381	2.1033
271.599	3.71746
271.817	6.48737
272.036	2.22973
272.254	3.8599
272.472	3.20156
272.69	3.12576
272.908	3.44955
273.126	5.21915
273.344	6.89145
273.562	2.51253
273.779	3.20067
273.997	5.10815
274.215	5.4633
274.433	4.1594
274.651	5.90616
274.869	6.27638
275.087	3.97658
275.305	5.61344
275.523	3.24562
275.74	3.86578
275.958	6.53327
276.176	10.39355
276.394	3.28032
276.612	4.36357
276.829	4.27298
277.047	3.76618
277.265	3.70904
277.483	4.77771
277.7	5.85209
277.918	4.63871
278.136	7.65323
278.353	3.7807
278.571	2.29053
278.789	5.94993
279.006	1.36949
279.224	4.0194
279.442	6.28537
279.659	4.52829
279.877	2.75465
280.094	6.53728
280.312	1.18552
280.529	4.3207
280.747	1.40677
280.964	3.41423
281.182	7.32233
281.399	3.60891
281.617	4.47456
281.834	3.22014
282.052	3.02407
282.269	4.07388
282.487	3.03462
282.704	2.73425
282.921	3.07043
283.139	4.24256
283.356	5.00731
283.574	4.76328
283.791	2.22401
284.008	6.7325
284.226	3.70055
284.443	4.16048
284.66	5.598
284.877	4.42299
285.095	2.76237
285.312	2.35953
285.529	1.34056
285.746	1.1779
285.964	2.63926
286.181	1.6587
286.398	2.6389
286.615	3.38374
286.832	3.1599
287.05	0.96431
287.267	2.37508
287.484	2.26705
287.701	3.38811
287.918	3.52922
288.135	3.46002
288.352	1.55105
288.569	1.99871
288.786	3.13765
289.003	2.45456
289.22	3.59243
289.437	2.22014
289.654	3.65925
289.871	3.58198
290.088	3.70045
290.305	2.67101
290.522	2.39131
290.739	2.54795
290.956	4.10029
291.173	4.71894
291.39	4.39322
291.607	3.0643
291.824	2.4781
292.04	1.6919
292.257	3.59578
292.474	4.23205
292.691	2.61284
292.908	1.01922
293.125	2.38161
293.341	1.55401
293.558	6.4469
293.775	2.46946
293.992	2.84481
294.208	1.05917
294.425	1.66228
294.642	2.52172
294.858	3.78269
295.075	0.95869
295.292	2.52352
295.508	2.96629
295.725	4.54684
295.942	2.29124
296.158	1.68948
296.375	2.51232
296.591	2.11534
296.808	2.10614
297.024	2.36813
297.241	2.7546
297.458	2.85429
297.674	0.2341
297.891	2.42754
298.107	1.75662
298.323	1.34548
298.54	3.40182
298.756	1.79012
298.973	0.97499
299.189	3.76816
299.406	1.59329
299.622	3.6882
299.838	3.65188
300.055	3.13252
300.271	0.80593
300.487	1.28895
300.704	1.52741
300.92	1.09684
301.136	4.88801
301.353	3.61041
301.569	2.42339
301.785	2.84379
302.001	3.37951
302.218	3.13911
302.434	3.05341
302.65	0.89853
302.866	2.03087
303.083	4.83864
303.299	4.67255
303.515	2.33146
303.731	2.852
303.947	0.83758
304.163	1.73752
304.379	2.67978
304.595	3.18855
304.812	1.8566
305.028	1.64961
305.244	2.25996
305.46	3.50818
305.676	3.37118
305.892	4.23264
306.108	3.03316
306.324	2.21031
306.54	4.63406
306.756	3.29973
306.972	2.98513
307.187	2.45663
307.403	4.49297
307.619	2.08129
307.835	3.73385
308.051	4.30381
308.267	1.34115
308.483	3.61089
308.699	2.88565
308.914	2.53819
309.13	2.45763
309.346	0.74084
309.562	1.42238
309.778	0.86527
309.993	2.9793
310.209	2.47773
310.425	1.24777
310.641	2.0923
310.856	1.37588
311.072	1.29382
311.288	2.45055
311.503	2.5359
311.719	0.73689
311.935	0.43114
312.15	2.74197
312.366	2.49626
312.581	3.08025
312.797	2.6347
313.013	3.17691
313.228	1.85979
313.444	2.43224
313.659	1.69075
313.875	2.74974
314.09	2.1735
314.306	4.07588
314.521	3.33893
314.737	3.06501
314.952	2.76398
315.168	2.30613
315.383	3.15236
315.599	2.24118
315.814	2.3896
316.029	3.68891
316.245	1.32333
316.46	0.73851
316.675	3.99415
316.891	4.84127
317.106	5.81955
317.321	3.12818
317.537	3.12069
317.752	3.44424
317.967	3.60047
318.183	1.83144
318.398	2.17911
318.613	3.73954
318.828	3.93189
319.043	3.6325
319.259	2.19793
319.474	3.15992
319.689	3.92981
319.904	0.8772
320.119	3.62514
320.334	2.80516
320.549	2.36286
320.765	3.83407
320.98	2.93492
321.195	3.5267
321.41	2.49875
321.625	3.66217
321.84	4.61363
322.055	4.42308
322.27	2.23089
322.485	1.58995
322.7	3.02117
322.915	3.74981
323.13	1.77379
323.345	4.38759
323.56	3.10559
323.775	3.34645
323.989	3.23406
324.204	2.74107
324.419	3.82124
324.634	1.14822
324.849	2.37611
325.064	5.09546
325.279	3.59804
325.493	3.35122
325.708	3.88823
325.923	1.72884
326.138	2.09366
326.352	4.34866
326.567	3.55304
326.782	2.15706
326.997	1.87752
327.211	3.45207
327.426	2.98319
327.641	2.33274
327.855	1.01446
328.07	3.18158
328.285	4.64378
328.499	2.16557
328.714	3.08133
328.928	3.50227
329.143	2.67163
329.358	4.08618
329.572	3.73515
329.787	4.32358
330.001	5.33471
330.216	1.16819
330.43	4.73434
330.645	4.50243
330.859	3.77797
331.074	2.10495
331.288	2.72445
331.503	4.51785
331.717	1.80554
331.931	2.70211
332.146	3.09459
332.36	4.91952
332.575	3.27566
332.789	2.9823
333.003	2.44226
333.218	3.2942
333.432	2.15423
333.646	3.71855
333.86	4.64144
334.075	4.5604
334.289	2.28672
334.503	1.66078
334.717	3.40544
334.932	3.28798
335.146	4.12094
335.36	2.36086
335.574	3.42337
335.788	3.78381
336.003	4.3458
336.217	3.69783
336.431	3.3768
336.645	2.36448
336.859	1.52729
337.073	2.55669
337.287	2.78831
337.501	1.70055
337.715	2.8173
337.929	3.2648
338.143	1.44509
338.357	2.53494
338.571	1.93373
338.785	3.2387
338.999	2.12918
339.213	2.25849
339.427	1.17284
339.641	4.21915
339.855	2.61064
340.069	2.2161
340.283	3.82201
340.497	4.62226
340.711	3.41974
340.924	2.71426
341.138	1.55816
341.352	1.23349
341.566	2.76922
341.78	0.87028
341.993	2.05295
342.207	1.69641
342.421	3.00276
342.635	3.13918
342.848	2.00783
343.062	0.72762
343.276	2.11113
343.49	4.99607
343.703	1.84014
343.917	3.59703
344.131	3.87323
344.344	1.97315
344.558	2.18826
344.771	1.59842
344.985	3.92718
345.199	4.39066
345.412	2.92349
345.626	3.03175
345.839	1.02572
346.053	1.60547
346.266	1.71983
346.48	3.35969
346.693	3.07359
346.907	3.20909
347.12	1.80752
347.334	2.86707
347.547	2.98841
347.76	2.41986
347.974	3.99881
348.187	2.95111
348.401	2.28897
348.614	2.0251
348.827	2.41675
349.041	3.41031
349.254	0.67938
349.467	2.48619
349.681	1.64077
349.894	1.94086
350.107	3.86555
350.32	4.41758
350.534	1.19365
350.747	2.24175
350.96	1.75256
351.173	1.99832
351.386	2.16603
351.6	2.03334
351.813	2.10141
352.026	2.49722
352.239	1.30986
352.452	2.33673
352.665	3.44694
352.878	2.33338
353.092	4.71638
353.305	3.14986
353.518	2.6292
353.731	1.53891
353.944	3.52093
354.157	1.97839
354.37	1.80547
354.583	1.61864
354.796	1.0931
355.009	3.70345
355.222	2.53787
355.435	2.63146
355.647	3.71678
355.86	1.62439
356.073	2.3902
356.286	2.02084
356.499	3.18015
356.712	2.9323
356.925	2.77898
357.138	3.40051
357.35	1.54512
357.563	1.98441
357.776	2.51732
357.989	2.30792
358.201	2.94732
358.414	2.76266
358.627	3.64174
358.84	2.10356
359.052	1.44199
359.265	1.48437
359.478	3.41228
359.69	0.08244
359.903	3.18636
360.116	3.1463
360.328	0.76992
360.541	3.03292
360.753	1.55919
360.966	1.83209
361.179	2.04029
361.391	1.91839
361.604	1.47252
361.816	1.83351
362.029	1.64123
362.241	1.54772
362.454	1.82717
362.666	1.42713
362.879	2.40321
363.091	2.11177
363.304	1.55471
363.516	2.16903
363.728	1.22602
363.941	2.71138
364.153	2.0998
364.366	0.44524
364.578	1.36519
364.79	2.74855
365.003	2.27003
365.215	1.81042
365.427	2.64065
365.639	3.40448
365.852	2.4365
366.064	3.83257
366.276	1.86971
366.488	2.66219
366.701	2.00317
366.913	2.08445
367.125	1.80697
367.337	1.71257
367.549	1.7304
367.762	2.36419
367.974	2.21983
368.186	1.72208
368.398	3.20766
368.61	2.9167
368.822	3.04917
369.034	2.34865
369.246	2.87136
369.458	4.5729
369.67	1.3637
369.882	3.93424
370.094	0.46901
370.306	3.64172
370.518	1.91517
370.73	1.79949
370.942	1.60419
371.154	2.14337
371.366	1.84456
371.578	2.5751
371.79	1.62189
372.002	3.27391
372.214	3.97449
372.425	2.48142
372.637	3.57514
372.849	2.60179
373.061	0.5064
373.273	2.70853
373.484	2.6263
373.696	3.03006
373.908	0.38928
374.12	3.15646
374.331	2.89271
374.543	1.37212
374.755	1.44392
374.967	2.25975
375.178	3.02457
375.39	2.05192
375.602	2.32023
375.813	1.09966
376.025	1.24273
376.236	2.26016
376.448	2.40982
376.66	1.83988
376.871	1.8125
377.083	3.13574
377.294	3.34985
377.506	1.88114
377.717	3.40657
377.929	2.40482
378.14	1.65765
378.352	2.72226
378.563	2.78325
378.775	3.44006
378.986	1.47618
379.197	2.4952
379.409	1.75171
379.62	2.86507
379.832	2.46411
380.043	2.21746
380.254	2.54495
380.466	1.2103
380.677	4.5657
380.888	4.17972
381.1	4.53275
381.311	4.43367
381.522	2.25235
381.733	4.95469
381.945	2.24123
382.156	2.26512
382.367	1.86451
382.578	4.82723
382.789	4.78072
383.001	1.91975
383.212	3.54623
383.423	3.5801
383.634	3.41221
383.845	2.73207
384.056	2.01625
384.267	2.29503
384.478	2.27175
384.69	1.4459
384.901	2.71839
385.112	2.67855
385.323	3.67316
385.534	2.72361
385.745	2.54452
385.956	2.68992
386.167	1.59937
386.378	2.75926
386.588	1.56516
386.799	1.51345
387.01	0.97294
387.221	3.13589
387.432	2.14896
387.643	3.95349
387.854	2.01328
388.065	2.12667
388.275	2.17251
388.486	1.91752
388.697	2.35731
388.908	2.04605
389.119	3.23103
389.329	3.81269
389.54	2.39308
389.751	2.6005
389.962	3.35133
390.172	2.46242
390.383	2.03609
390.594	1.79308
390.804	1.54102
391.015	1.87216
391.226	2.29435
391.436	2.6923
391.647	2.52997
391.858	2.87857
392.068	0.97289
392.279	1.38777
392.489	2.42474
392.7	3.09674
392.91	1.54827
393.121	1.76154
393.331	2.61419
393.542	3.26822
393.752	2.82747
393.963	2.38572
394.173	2.36293
394.384	2.87195
394.594	2.26618
394.804	1.36288
395.015	2.40789
395.225	2.69571
395.436	1.41086
395.646	2.75556
395.856	1.72476
396.067	1.1982
396.277	3.17521
396.487	2.67964
396.697	2.51364
396.908	3.17462
397.118	2.94264
397.328	2.45999
397.538	3.20857
397.749	1.71518
397.959	3.20201
398.169	2.88073
398.379	1.22369
398.589	2.99614
398.8	2.41003
399.01	2.34372
399.22	2.12173
399.43	4.27847
399.64	2.07014
399.85	2.91209
400.06	2.41219
400.27	1.95238
400.48	2.3948
400.69	3.62103
400.9	1.93615
401.11	1.8844
401.32	3.12728
401.53	2.00408
401.74	3.73937
401.95	3.005
402.16	1.75182
402.37	2.94683
402.58	1.93567
402.79	2.80267
403	3.22072
403.209	2.25073
403.419	3.0525
403.629	2.02538
403.839	2.95403
404.049	3.08465
404.258	1.82393
404.468	1.86526
404.678	2.90996
404.888	2.98931
405.097	1.77166
405.307	2.26807
405.517	2.84204
405.727	2.61741
405.936	2.15374
406.146	2.71904
406.356	3.45284
406.565	2.40063
406.775	1.99317
406.984	2.08263
407.194	3.93864
407.404	2.55547
407.613	2.83518
407.823	3.03269
408.032	3.42392
408.242	3.56491
408.451	2.17768
408.661	2.44677
408.87	3.9739
409.08	2.21716
409.289	2.85615
409.499	2.62679
409.708	2.67106
409.918	1.04103
410.127	2.61299
410.336	3.7663
410.546	3.01431
410.755	2.24529
410.964	2.15348
411.174	1.87724
411.383	2.83897
411.592	2.91012
411.802	1.80052
412.011	3.1388
412.22	2.55054
412.429	3.74292
412.639	3.72881
412.848	3.73239
413.057	3.77211
413.266	3.58591
413.475	2.73526
413.685	3.43226
413.894	3.36638
414.103	3.68094
414.312	3.32723
414.521	2.53454
414.73	2.7621
414.939	4.16177
415.148	3.12814
415.357	2.92619
415.566	2.37269
415.776	2.37803
415.985	2.27873
416.194	3.19752
416.403	3.94802
416.611	1.62719
416.82	2.14644
417.029	2.63922
417.238	2.08025
417.447	1.84876
417.656	2.24942
417.865	1.9593
418.074	2.34551
418.283	2.43217
418.492	3.14427
418.7	2.98939
418.909	3.81904
419.118	2.84873
419.327	3.02889
419.536	2.78421
419.744	2.46223
419.953	3.73829
420.162	3.7123
420.371	2.69298
420.579	2.58032
420.788	3.72031
420.997	3.70636
421.205	3.76907
421.414	3.4187
421.623	3.44397
421.831	3.04341
422.04	3.7851
422.249	2.88087
422.457	3.41747
422.666	2.78924
422.874	3.90498
423.083	3.95181
423.291	3.76791
423.5	3.43856
423.708	3.74859
423.917	4.15342
424.125	3.51308
424.334	3.22067
424.542	5.22051
424.751	4.36535
424.959	4.08386
425.167	4.51806
425.376	4.22641
425.584	3.44494
425.793	3.76819
426.001	2.76137
426.209	3.61978
426.418	2.63469
426.626	2.69871
426.834	2.41549
427.042	2.91806
427.251	2.52685
427.459	3.56561
427.667	3.24838
427.875	2.12704
428.084	2.681
428.292	3.88557
428.5	3.46697
428.708	2.33512
428.916	2.38979
429.124	3.00665
429.333	2.80164
429.541	2.75627
429.749	2.92107
429.957	2.85833
430.165	4.59098
430.373	2.14322
430.581	3.07078
430.789	4.02472
430.997	2.70017
431.205	2.54005
431.413	3.04742
431.621	2.71091
431.829	3.43099
432.037	2.74349
432.245	3.38854
432.453	3.20506
432.661	2.82567
432.869	4.27638
433.076	2.46152
433.284	2.86228
433.492	3.39716
433.7	3.85202
433.908	2.80088
434.116	3.08672
434.323	3.17979
434.531	3.06919
434.739	3.47265
434.947	3.6836
435.154	3.6486
435.362	3.23193
435.57	2.8895
435.778	2.7009
435.985	3.38663
436.193	2.80477
436.401	3.93529
436.608	3.17919
436.816	2.76966
437.023	4.35353
437.231	4.25198
437.439	3.2102
437.646	3.64487
437.854	3.42618
438.061	3.71529
438.269	3.07822
438.476	3.50543
438.684	3.30034
438.891	2.98314
439.099	2.69123
439.306	2.32509
439.514	2.61726
439.721	3.6326
439.929	3.10487
440.136	3.88139
440.343	3.82456
440.551	3.52625
440.758	5.12113
440.965	4.02198
441.173	3.68351
441.38	3.22359
441.587	3.62808
441.795	3.1669
442.002	3.48044
442.209	3.45226
442.416	3.75505
442.624	3.72698
442.831	3.59174
443.038	2.9667
443.245	2.72689
443.452	3.10797
443.66	3.81257
443.867	2.88602
444.074	2.96186
444.281	2.86045
444.488	3.06558
444.695	3.1802
444.902	3.04043
445.109	3.91787
445.316	3.47459
445.523	3.50481
445.73	3.321
445.937	4.10767
446.144	4.45333
446.351	4.54972
446.558	3.65165
446.765	4.93403
446.972	4.92063
447.179	4.12055
447.386	5.13481
447.593	3.66646
447.8	4.7923
448.007	3.59676
448.214	3.49282
448.42	3.15857
448.627	4.19098
448.834	3.36312
449.041	3.3181
449.248	3.22223
449.454	4.09338
449.661	4.75915
449.868	3.21696
450.075	3.18915
450.281	2.21535
450.488	2.72662
450.695	2.96581
450.901	2.88431
451.108	3.15659
451.315	4.15549
451.521	3.31711
451.728	4.1155
451.935	2.94591
452.141	3.26733
452.348	3.42207
452.554	3.46149
452.761	3.17693
452.967	4.54933
453.174	3.56076
453.38	3.60033
453.587	2.74356
453.793	3.47878
454	4.07656
454.206	4.87234
454.413	4.32432
454.619	3.66593
454.825	3.05486
455.032	3.74141
455.238	4.17468
455.445	2.69095
455.651	3.62139
455.857	2.28557
456.064	3.30315
456.27	3.50928
456.476	3.40136
456.682	2.64386
456.889	3.87461
457.095	3.92073
457.301	5.18384
457.507	3.71895
457.714	3.48649
457.92	3.52217
458.126	3.0188
458.332	3.28918
458.538	3.00309
458.744	3.22717
458.951	3.44353
459.157	5.00477
459.363	4.16249
459.569	4.14352
459.775	4.82867
459.981	3.89368
460.187	4.40458
460.393	4.76073
460.599	5.14641
460.805	4.24493
461.011	3.95863
461.217	4.39214
461.423	4.52015
461.629	3.58327
461.835	4.21666
462.041	3.59114
462.247	4.87366
462.453	3.6104
462.658	3.84061
462.864	4.33324
463.07	3.99045
463.276	3.95011
463.482	4.01967
463.688	4.75887
463.893	3.37738
464.099	3.70073
464.305	4.93106
464.511	3.54965
464.716	3.82817
464.922	4.42778
465.128	3.28992
465.333	5.02942
465.539	4.2997
465.745	3.65902
465.95	4.02632
466.156	5.70559
466.362	4.60353
466.567	3.80187
466.773	3.63645
466.978	5.0899
467.184	3.30069
467.389	2.51299
467.595	4.17337
467.8	3.29784
468.006	4.79738
468.211	4.84397
468.417	3.30365
468.622	4.33927
468.828	4.47484
469.033	4.019
469.239	5.92918
469.444	3.61084
469.649	4.45145
469.855	3.73418
470.06	4.00123
470.266	3.33167
470.471	4.46201
470.676	4.35656
470.881	2.89822
471.087	5.03599
471.292	5.43837
471.497	3.15865
471.703	3.92947
471.908	3.6968
472.113	4.21094
472.318	4.61702
472.523	3.22509
472.729	4.24159
472.934	4.40722
473.139	3.89164
473.344	4.44559
473.549	5.00719
473.754	3.7063
473.959	5.53656
474.164	3.64562
474.369	4.05332
474.575	4.70283
474.78	4.13463
474.985	3.75264
475.19	3.08551
475.395	3.49214
475.6	4.00687
475.804	4.93176
476.009	4.06863
476.214	4.15713
476.419	3.79583
476.624	3.04437
476.829	3.55905
477.034	4.51121
477.239	3.5974
477.444	4.57091
477.648	4.37094
477.853	4.48303
478.058	3.94862
478.263	3.69266
478.468	3.38679
478.672	3.50751
478.877	5.04116
479.082	5.24511
479.287	4.41971
479.491	4.23863
479.696	3.37585
479.901	4.73553
480.105	4.64711
480.31	3.78224
480.515	4.03023
480.719	5.61566
480.924	3.72167
481.128	3.30356
481.333	4.2387
481.538	4.18082
481.742	4.17501
481.947	4.92524
482.151	5.36376
482.356	5.49087
482.56	6.87824
482.765	7.38875
482.969	9.04312
483.174	10.44822
483.378	12.21596
483.582	12.27314
483.787	13.20948
483.991	13.11647
484.196	13.28283
484.4	12.90547
484.604	13.20945
484.809	11.36657
485.013	11.19034
485.217	9.64405
485.422	8.59444
485.626	7.81949
485.83	7.34649
486.034	7.1918
486.239	7.43766
486.443	7.73288
486.647	7.8202
486.851	8.83965
487.055	9.5579
487.26	8.94751
487.464	9.75972
487.668	9.04348
487.872	9.24345
488.076	9.77638
488.28	8.97467
488.484	8.36985
488.688	8.12145
488.892	7.92536
489.096	7.47169
489.3	6.62617
489.504	6.22004
489.708	6.23802
489.912	6.23136
490.116	6.01677
490.32	5.52565
490.524	6.42068
490.728	7.10503
490.932	7.09831
491.136	7.27196
491.34	8.51055
491.544	8.63293
491.748	8.21366
491.951	8.24543
492.155	7.86879
492.359	7.87571
492.563	6.66613
492.767	6.14054
492.97	5.64572
493.174	4.89679
493.378	4.7165
493.582	4.11446
493.785	4.50874
493.989	4.57336
494.193	4.75218
494.396	4.18606
494.6	5.02383
494.804	4.48441
495.007	4.05647
495.211	4.11059
495.414	4.39114
495.618	4.51525
495.822	5.2064
496.025	4.35403
496.229	4.93139
496.432	4.06906
496.636	4.32747
496.839	4.39574
497.043	5.37097
497.246	4.61999
497.45	4.26104
497.653	4.33591
497.856	4.65337
498.06	3.9388
498.263	4.27941
498.467	4.2205
498.67	5.04229
498.873	4.8355
499.077	4.33756
499.28	4.27165
499.483	4.71929
499.686	5.07703
499.89	4.67194
500.093	4.98188
500.296	4.17239
500.499	5.53088
500.703	4.52051
500.906	4.63713
501.109	5.73717
501.312	4.72454
501.515	4.37858
501.719	4.80934
501.922	5.65373
502.125	4.82258
502.328	4.49384
502.531	3.76804
502.734	4.76844
502.937	3.57461
503.14	4.70861
503.343	3.97845
503.546	4.35305
503.749	4.05961
503.952	4.86258
504.155	4.02291
504.358	4.94429
504.561	4.49029
504.764	3.8424
504.967	4.58347
505.17	4.52302
505.373	5.65457
505.576	4.6513
505.778	4.98015
505.981	4.24686
506.184	5.40017
506.387	3.51228
506.59	5.82116
506.793	5.49198
506.995	4.89633
507.198	3.62223
507.401	4.70102
507.604	4.80481
507.806	3.91015
508.009	4.09095
508.212	4.90076
508.414	4.17612
508.617	4.18795
508.82	4.40693
509.022	5.35278
509.225	4.81343
509.427	3.63935
509.63	5.39153
509.833	4.55692
510.035	4.41301
510.238	3.72793
510.44	5.35188
510.643	3.23438
510.845	6.07039
511.048	4.98653
511.25	4.28136
511.453	4.48956
511.655	4.92186
511.858	4.39743
512.06	5.22833
512.262	4.73622
512.465	5.18188
512.667	4.3839
512.869	4.01308
513.072	4.89022
513.274	5.15516
513.476	5.1205
513.679	5.26505
513.881	4.03308
514.083	5.66214
514.286	4.23849
514.488	4.30171
514.69	4.20522
514.892	3.8254
515.094	5.18478
515.297	4.36357
515.499	4.69163
515.701	4.16652
515.903	5.85997
516.105	5.8492
516.307	5.15734
516.509	3.48885
516.711	3.97821
516.913	4.639
517.116	4.53583
517.318	4.4053
517.52	5.27508
517.722	5.0382
517.924	3.96752
518.126	4.93354
518.328	4.43824
518.529	5.15972
518.731	5.90694
518.933	4.5027
519.135	4.74234
519.337	5.49269
519.539	5.14866
519.741	3.73577
519.943	4.60751
520.145	4.62331
520.346	5.11873
520.548	4.62632
520.75	4.95957
520.952	4.45645
521.153	5.08338
521.355	5.15342
521.557	4.09481
521.759	4.84049
521.96	4.74757
522.162	3.9914
522.364	5.64204
522.565	4.04962
522.767	5.21464
522.969	5.46158
523.17	5.1435
523.372	5.10889
523.573	4.31803
523.775	4.69244
523.977	4.05339
524.178	5.72189
524.38	4.22474
524.581	5.2154
524.783	4.35454
524.984	5.16336
525.186	4.9102
525.387	5.48819
525.589	5.15737
525.79	5.03251
525.991	4.81312
526.193	5.65247
526.394	4.59251
526.596	5.63827
526.797	5.88765
526.998	5.43118
527.2	5.47414
527.401	7.27057
527.602	7.72952
527.803	9.55202
528.005	9.72754
528.206	10.61622
528.407	11.19278
528.608	10.83389
528.81	11.04833
529.011	10.26671
529.212	11.25947
529.413	10.1707
529.614	9.31924
529.815	8.96238
530.017	8.15258
530.218	7.09656
530.419	6.21806
530.62	6.09409
530.821	5.91488
531.022	4.80464
531.223	5.92756
531.424	5.7918
531.625	5.73554
531.826	5.63928
532.027	5.9678
532.228	7.10725
532.429	6.71653
532.63	6.90516
532.831	7.54643
533.032	7.50387
533.233	8.15769
533.433	7.7812
533.634	7.90661
533.835	7.17207
534.036	6.71095
534.237	6.51401
534.438	5.83849
534.638	5.01068
534.839	5.10465
535.04	5.31078
535.241	4.74901
535.441	5.95462
535.642	5.3165
535.843	4.71828
536.043	4.82526
536.244	5.12138
536.445	5.21832
536.645	6.14395
536.846	5.61723
537.047	6.28699
537.247	4.85092
537.448	5.04194
537.648	5.14582
537.849	4.93266
538.049	4.90473
538.25	5.61171
538.451	5.31084
538.651	4.54317
538.851	5.37491
539.052	5.8953
539.252	5.60247
539.453	4.99888
539.653	5.23541
539.854	4.89944
540.054	5.23817
540.254	6.56163
540.455	7.24057
540.655	6.8662
540.855	7.90003
541.056	8.72096
541.256	8.07775
541.456	9.11533
541.657	8.22468
541.857	9.26451
542.057	7.62291
542.257	7.34132
542.458	7.69889
542.658	7.60748
542.858	5.93258
543.058	6.77733
543.258	6.04436
543.458	4.88733
543.659	4.58154
543.859	5.57555
544.059	5.6089
544.259	4.98943
544.459	5.62428
544.659	4.82482
544.859	5.42117
545.059	4.75162
545.259	5.5549
545.459	5.3553
545.659	5.75492
545.859	5.12697
546.059	5.21219
546.259	4.58435
546.459	4.20741
546.659	4.52145
546.859	5.6194
547.059	5.43742
547.258	5.46196
547.458	5.45475
547.658	4.54168
547.858	4.46563
548.058	5.46667
548.258	5.15584
548.457	4.5977
548.657	7.14942
548.857	5.01485
549.057	5.92173
549.256	5.63834
549.456	5.01091
549.656	3.85755
549.855	6.83762
550.055	5.09459
550.255	6.6648
550.454	5.60259
550.654	6.10238
550.853	6.41104
551.053	6.10383
551.253	5.72464
551.452	5.79023
551.652	4.5611
551.851	3.97642
552.051	4.9102
552.25	4.90877
552.45	4.76685
552.649	5.00229
552.849	4.5016
553.048	5.32286
553.248	5.75419
553.447	4.6016
553.646	6.10044
553.846	6.63109
554.045	6.2083
554.244	4.62563
554.444	6.97074
554.643	4.60372
554.842	6.62736
555.042	7.25754
555.241	4.86717
555.44	4.78686
555.64	5.93123
555.839	7.07431
556.038	5.87926
556.237	5.0203
556.436	5.35074
556.636	5.89281
556.835	4.97613
557.034	6.97563
557.233	5.42508
557.432	4.46679
557.631	6.57478
557.83	5.34242
558.029	5.11445
558.228	5.16697
558.427	4.52922
558.626	5.77406
558.825	4.77138
559.024	5.73774
559.223	7.17979
559.422	5.29919
559.621	5.96686
559.82	3.19296
560.019	5.53173
560.218	5.14442
560.417	3.08616
560.616	5.08915
560.815	8.35557
561.014	4.09432
561.212	6.63267
561.411	5.67542
561.61	4.04631
561.809	5.32024
562.008	6.82663
562.206	5.32767
562.405	5.90565
562.604	5.51073
562.803	5.59946
563.001	5.31188
563.2	4.12824
563.399	6.01113
563.597	4.23565
563.796	5.69608
563.995	4.23159
564.193	5.91037
564.392	5.0554
564.59	7.46371
564.789	3.61893
564.988	5.0839
565.186	5.45448
565.385	5.02404
565.583	5.03989
565.782	5.3084
565.98	4.91634
566.179	5.21681
566.377	4.30591
566.575	4.74717
566.774	6.35411
566.972	6.18207
567.171	7.23325
567.369	6.46062
567.567	5.4506
567.766	5.62757
567.964	3.58244
568.162	6.01503
568.361	6.3622
568.559	5.35137
568.757	5.8594
568.956	5.5994
569.154	5.32106
569.352	6.12117
569.55	5.41594
569.748	5.41435
569.947	4.70711
570.145	4.75377
570.343	4.3666
570.541	6.27547
570.739	4.27278
570.937	5.5424
571.135	5.54635
571.333	6.8146
571.532	6.70078
571.73	5.72194
571.928	6.01274
572.126	5.7015
572.324	5.06865
572.522	6.57162
572.72	7.6165
572.918	5.42655
573.116	5.7197
573.313	5.47048
573.511	5.41625
573.709	4.99183
573.907	6.02216
574.105	5.35437
574.303	3.91242
574.501	4.10383
574.699	5.56462
574.896	5.77458
575.094	5.92969
575.292	4.15612
575.49	6.21659
575.688	5.32239
575.885	6.59714
576.083	7.20497
576.281	5.90787
576.478	4.85062
576.676	6.19284
576.874	4.44192
577.071	5.08658
577.269	7.87126
577.467	5.61857
577.664	5.58138
577.862	6.53963
578.059	4.96163
578.257	6.30111
578.455	5.62164
578.652	5.78591
578.85	3.92042
579.047	6.01255
579.245	5.84439
579.442	5.56855
579.64	5.81371
579.837	3.85665
580.034	8.42473
580.232	5.49415
580.429	4.78969
580.627	6.33356
580.824	7.04885
581.021	6.42761
581.219	5.49646
581.416	5.05863
581.613	7.26237
581.811	7.22821
582.008	5.07898
582.205	6.74515
582.402	6.1692
582.6	8.32959
582.797	5.95352
582.994	6.68355
583.191	6.73292
583.388	6.05649
583.586	6.86361
583.783	7.32028
583.98	4.78248
584.177	6.28733
584.374	2.89274
584.571	5.70147
584.768	6.06124
584.965	5.83067
585.162	6.943
585.359	7.75167
585.556	6.08502
585.753	6.49792
585.95	4.52545
586.147	5.27905
586.344	6.37129
586.541	5.72137
586.738	4.77852
586.935	5.87047
587.132	5.07026
587.329	7.15223
587.526	5.94779
587.722	11.3586
587.919	4.55181
588.116	6.39959
588.313	7.46378
588.51	8.7877
588.706	5.48754
588.903	6.45545
589.1	6.95983
589.297	9.0024
589.493	5.88882
589.69	6.54874
589.887	5.35837
590.083	4.67767
590.28	4.94631
590.477	7.18599
590.673	6.92754
590.87	7.67064
591.067	5.56004
591.263	6.67058
591.46	6.78146
591.656	5.88622
591.853	8.00004
592.049	5.25237
592.246	5.42233
592.442	7.65286
592.639	7.58052
592.835	4.91099
593.032	6.44327
593.228	4.46564
593.425	4.30719
593.621	4.47007
593.817	6.45502
594.014	5.27458
594.21	6.02368
594.406	7.08494
594.603	6.34647
594.799	5.31697
594.995	3.46741
595.192	6.96945
595.388	5.4033
595.584	5.25272
595.78	4.35227
595.977	8.2454
596.173	7.55823
596.369	5.49334
596.565	4.76622
596.761	4.32171
596.957	6.81733
597.154	4.8793
597.35	5.21789
597.546	4.76983
597.742	6.33118
597.938	6.19801
598.134	5.0131
598.33	6.03107
598.526	8.04332
598.722	6.73648
598.918	8.44194
599.114	6.83396
599.31	5.0923
599.506	6.23883
599.702	5.27355
599.898	6.80266
600.094	7.63758
600.29	7.22832
600.485	7.22391
600.681	6.09341
600.877	8.2891
601.073	6.2212
601.269	8.50665
601.465	8.06778
601.66	5.20813
601.856	3.91826
602.052	8.16423
602.248	5.45777
602.443	3.67367
602.639	4.49452
602.835	4.69952
603.03	4.97077
603.226	6.94855
603.422	4.72956
603.617	5.71803
603.813	5.38803
604.009	5.29478
604.204	6.95008
604.4	4.20451
604.595	6.78091
604.791	4.60587
604.986	6.04558
605.182	4.84046
605.377	5.50855
605.573	5.32965
605.768	5.81631
605.964	6.63165
606.159	6.87242
606.355	7.6916
606.55	5.88979
606.746	7.58787
606.941	5.97797
607.136	8.77653
607.332	9.9461
607.527	4.36707
607.722	6.42172
607.918	6.17844
608.113	5.40049
608.308	7.03174
608.503	6.68361
608.699	6.44098
608.894	6.45493
609.089	4.99793
609.284	6.23905
609.479	5.46835
609.675	6.55734
609.87	5.49671
610.065	6.70473
610.26	7.13419
610.455	7.11921
610.65	5.79641
610.845	6.26524
611.04	7.50071
611.235	6.28135
611.43	6.13469
611.625	4.97156
611.82	8.19722
612.015	5.07543
612.21	8.49702
612.405	4.64859
612.6	9.57188
612.795	8.40301
612.99	7.79331
613.185	5.24758
613.38	5.49386
613.575	7.02181
613.77	10.6882
613.965	4.62711
614.159	5.6606
614.354	8.29519
614.549	8.33734
614.744	8.10011
614.938	5.43051
615.133	4.99126
615.328	8.65436
615.523	8.7483
615.717	11.28559
615.912	6.36406
616.107	6.96858
616.301	6.28289
616.496	5.65794
616.691	9.5185
616.885	7.91101
617.08	10.9592
617.274	8.92192
617.469	10.20592
617.664	7.86631
617.858	6.0702
618.053	7.24627
618.247	6.60106
618.442	3.71629
618.636	8.87751
618.831	6.33153
619.025	6.22681
619.219	11.02454
619.414	2.1691
619.608	6.67733
619.803	5.79201
619.997	10.3039
620.191	8.98012
620.386	7.6457
620.58	7.15441
620.774	4.45075
620.969	4.62126
621.163	7.65471
621.357	4.941
621.551	6.5451
621.746	7.30672
621.94	7.41581
622.134	12.69947
622.328	10.45222
622.522	4.96764
622.716	8.5726
622.911	8.73294
623.105	8.58369
623.299	7.82226
623.493	12.46941
623.687	6.23508
623.881	6.69021
624.075	8.28295
624.269	8.82477
624.463	3.81596
624.657	4.6353
624.851	8.00497
625.045	8.48996
625.239	8.54539
625.433	6.20119
625.627	9.41812
625.821	6.10814
626.015	5.61762
626.209	6.75843
626.403	4.75357
626.596	7.42877
626.79	7.86944
626.984	4.86631
627.178	7.41989
627.372	7.67046
627.565	8.04387
627.759	4.49584
627.953	4.8851
628.147	7.77528
628.34	8.14546
628.534	10.3718
628.728	6.73444
628.921	8.78933
629.115	8.59517
629.309	8.51373
629.502	9.06279
629.696	7.83982
629.89	7.11079
630.083	7.54908
630.277	8.29708
630.47	10.70734
630.664	6.92839
630.857	5.24012
631.051	8.87673
631.244	9.23376
631.438	8.93927
631.631	6.32231
631.825	9.6977
632.018	8.59388
632.212	10.87178
632.405	9.4082
632.598	6.21654
632.792	7.76944
632.985	3.40145
633.178	6.5989
633.372	7.60199
633.565	7.26404
633.758	9.91252
633.952	6.1558
634.145	6.22566
634.338	6.7679
634.531	6.59044
634.724	6.51518
634.918	7.82484
635.111	7.06152
635.304	6.71588
635.497	11.6192
635.69	8.046
635.883	10.09637
636.077	5.53681
636.27	8.6284
636.463	8.18871
636.656	8.65026
636.849	6.98526
637.042	8.55082
637.235	11.13426
637.428	9.22685
637.621	9.9037
637.814	10.78379
638.007	11.51396
638.2	11.58398
638.393	12.46143
638.586	5.53159
638.778	7.18495
638.971	8.20151
639.164	11.34977
639.357	9.23195
639.55	11.12128
639.743	10.13999
639.935	9.8471
640.128	12.72346
640.321	9.7113
640.514	8.77647
640.707	14.20829
640.899	10.43103
641.092	5.25104
641.285	23.77945
641.477	4.36629
641.67	13.05272
641.863	11.59924
642.055	9.20628
642.248	8.66146
642.441	7.78539
642.633	9.6399
642.826	11.36325
643.018	11.98993
643.211	12.81139
643.403	12.56166
643.596	13.78212
643.788	13.21543
643.981	8.28797
644.173	10.94381
644.366	8.4381
644.558	5.38246
644.751	10.50911
644.943	5.89344
645.135	12.98179
645.328	13.3907
645.52	10.82798
645.712	10.91911
645.905	16.09984
646.097	7.3898
646.289	10.33064
646.482	13.33676
646.674	8.0084
646.866	12.14638
647.058	10.04081
647.251	6.75609
647.443	7.96559
647.635	9.10797
647.827	6.80722
648.019	6.67221
648.211	9.03735
648.404	9.52744
648.596	12.95799
648.788	9.63946
648.98	10.25958
649.172	10.28084
649.364	10.60493
649.556	5.62295
649.748	15.08396
649.94	7.91558
650.132	10.58222
650.324	7.40955
650.516	7.95072
650.708	11.36832
650.9	6.47231
651.092	5.33841
651.284	5.59445
651.476	6.70853
651.667	11.02516
651.859	12.32053
652.051	9.14608
652.243	10.06256
652.435	8.57986
652.627	10.70258
652.818	10.42991
653.01	5.88421
653.202	7.39264
653.394	8.9302
653.585	11.19708
653.777	20.95825
653.969	13.326
654.16	12.53439
654.352	7.66608
654.544	9.59075
654.735	13.1513
654.927	10.44563
655.118	13.69825
655.31	12.11379
655.502	12.5464
655.693	8.62433
655.885	11.12011
656.076	13.69477
656.268	9.82921
656.459	13.39585
656.651	13.36863
656.842	8.83621
657.034	7.97295
657.225	11.39447
657.416	13.11323
657.608	12.86042
657.799	9.17028
657.99	11.84729
658.182	7.71069
658.373	7.71344
658.564	11.19653
658.756	9.28576
658.947	8.7702
659.138	6.94869
659.33	7.9282
659.521	7.50103
659.712	8.95807
659.903	8.48219
660.094	7.77931
660.286	5.96807
660.477	14.22555
660.668	10.90817
660.859	10.03366
661.05	6.66864
661.241	11.75562
661.432	11.53675
661.623	8.9341
661.814	8.60709
662.006	6.35522
662.197	11.0801
662.388	12.60712
662.579	10.68617
662.77	14.09273
662.96	17.84222
663.151	12.73058
663.342	5.91523
663.533	12.04964
663.724	10.62133
663.915	15.27923
664.106	10.55674
664.297	15.77773
664.488	12.6783
664.678	9.5589
664.869	12.45905
665.06	13.71576
665.251	11.38497
665.442	12.30719
665.632	8.12165
665.823	16.48741
666.014	3.54748
666.204	12.34038
666.395	14.54128
666.586	19.35223
666.776	13.27835
666.967	16.51556
667.158	11.58043
667.348	15.44635
667.539	7.97032
667.729	13.7041
667.92	8.74249
668.111	13.94435
668.301	13.13355
668.492	9.92628
668.682	11.08841
668.873	10.32231
669.063	8.06287
669.253	10.89228
669.444	14.04631
669.634	10.11099
669.825	16.51245
670.015	14.2407
670.206	9.13398
670.396	17.70434
670.586	11.32222
670.777	12.48984
670.967	5.84171
671.157	11.11659
671.347	9.58045
671.538	16.68438
671.728	13.42463
671.918	17.52451
672.108	15.31065
672.299	12.10117
672.489	13.05935
672.679	10.23349
672.869	12.77729
673.059	16.4711
673.249	12.80769
673.44	9.87525
673.63	11.25248
673.82	14.52817
674.01	9.42095
674.2	14.11186
674.39	21.44174
674.58	13.91136
674.77	11.90048
674.96	11.4644
675.15	25.1881
675.34	14.96008
675.53	12.30428
675.72	11.03727
675.91	8.14382
676.099	18.12831
676.289	19.80498
676.479	15.49211
676.669	11.32354
676.859	14.29143
677.049	8.98646
677.238	12.45048
677.428	17.88449
677.618	13.36857
677.808	15.55346
677.997	13.65896
678.187	9.08218
678.377	11.82271
678.567	9.81633
678.756	11.30205
678.946	10.6903
679.136	7.18505
679.325	9.62675
679.515	8.63485
679.704	7.5721
679.894	13.20859
680.084	12.06028
680.273	15.20671
680.463	9.00072
680.652	8.87721
680.842	11.09992
681.031	14.36157
681.221	9.13575
681.41	12.92356
681.6	11.15048
681.789	14.12827
681.978	15.74298
682.168	13.01955
682.357	13.90586
682.547	14.85208
682.736	13.36837
682.925	16.81663
683.115	16.48949
683.304	15.28526
683.493	14.3457
683.682	14.20173
683.872	13.75417
684.061	17.52539
684.25	15.38855
684.439	19.29415
684.629	15.16508
684.818	25.01758
685.007	13.48279
685.196	12.76782
685.385	18.90146
685.574	15.29066
685.763	14.42641
685.952	14.31461
686.142	9.4574
686.331	18.71242
686.52	8.00277
686.709	18.70789
686.898	18.85075
687.087	16.05081
687.276	19.68038
687.465	17.4437
687.654	11.59545
687.842	19.44729
688.031	9.04437
688.22	17.5995
688.409	14.396
688.598	13.88555
688.787	23.31342
688.976	14.86988
689.165	21.21818
689.353	12.69239
689.542	16.34091
689.731	17.54074
689.92	22.14496
690.108	18.20323
690.297	13.61237
690.486	15.39592
690.675	17.73323
690.863	21.30148
691.052	21.17757
691.241	16.68347
691.429	15.94961
691.618	20.91323
691.806	10.15492
691.995	14.38874
692.184	14.54184
692.372	13.49174
692.561	16.22163
692.749	16.12248
692.938	24.96223
693.126	18.04902
693.315	14.59263
693.503	17.89019
693.692	18.59574
693.88	20.28396
694.068	25.91213
694.257	16.05959
694.445	17.31064
694.634	8.88431
694.822	19.92392
695.01	21.71209
695.199	21.92913
695.387	22.39873
695.575	21.88926
695.763	15.91204
695.952	14.72895
696.14	9.83562
696.328	13.14577
696.516	16.09996
696.705	16.21177
696.893	16.29854
697.081	8.9917
697.269	17.67321
697.457	11.04351
697.645	9.79295
697.833	17.45646
698.021	10.72474
698.21	11.80157
698.398	13.378
698.586	9.39135
698.774	9.14467
698.962	12.39686
699.15	9.78358
699.338	8.40016
699.526	15.49326
699.714	11.55987
699.901	11.97013
700.089	18.06695
700.277	12.01913
700.465	14.22604
700.653	18.25929
700.841	17.10609
701.029	12.74605
701.217	20.43164
701.404	16.45147
701.592	21.7734
701.78	24.331
701.968	14.503
702.155	15.51733
702.343	10.73825
702.531	22.16435
702.718	18.59263
702.906	15.21782
703.094	14.1988
703.281	22.63297
703.469	16.49653
703.657	21.45004
703.844	31.5947
704.032	23.98497
704.219	15.30206
704.407	18.97691
704.595	23.60176
704.782	18.48483
704.97	15.78644
705.157	16.27965
705.345	26.16779
705.532	29.67869
705.719	18.84502
705.907	24.14461
706.094	18.34764
706.282	26.72022
706.469	16.53637
706.656	19.50426
706.844	16.76631
707.031	23.21045
707.218	19.0923
707.406	25.84239
707.593	22.23941
707.78	21.32567
707.968	17.74447
708.155	14.22563
708.342	21.74618
708.529	21.88715
708.716	18.95912
708.904	26.65457
709.091	22.07142
709.278	13.21837
709.465	26.42945
709.652	28.77927
709.839	25.71263
710.026	20.56274
710.213	11.32937
710.4	21.44752
710.587	23.71262
710.774	24.25819
710.961	25.31895
711.148	19.89153
711.335	24.87302
711.522	19.32728
711.709	20.29659
711.896	30.40792
712.083	24.99557
712.27	16.0012
712.457	20.74517
712.644	12.66743
712.831	30.41625
713.017	21.20106
713.204	24.95784
713.391	17.37197
713.578	25.78856
713.765	27.89125
713.951	23.16355
714.138	37.53602
714.325	24.05051
714.512	20.94654
714.698	16.98425
714.885	28.43495
715.072	22.63313
715.258	21.59717
715.445	18.09319
715.631	27.00045
715.818	8.21245
716.005	17.64703
716.191	23.60163
716.378	19.95012
716.564	25.35893
716.751	15.94012
716.937	19.13673
717.124	27.91951
717.31	18.21439
717.497	30.38464
717.683	18.55549
717.869	36.39638
718.056	19.37831
718.242	25.32743
718.429	21.09981
718.615	16.55158
718.801	22.70269
718.988	28.16232
719.174	25.42876
719.36	22.17904
719.547	29.30579
719.733	23.58785
719.919	24.96979
720.105	27.32427
720.291	22.09918
720.478	24.42764
720.664	22.19981
720.85	20.24129
721.036	42.00488
721.222	32.21497
721.408	23.43383
721.595	37.18431
721.781	34.23497
721.967	30.5547
722.153	33.68786
722.339	28.98539
722.525	27.26744
722.711	16.95659
722.897	15.23562
723.083	21.1829
723.269	30.74725
723.455	40.93929
723.641	44.19354
723.827	26.10552
724.012	27.25768
724.198	21.6222
724.384	32.65277
724.57	28.81131
724.756	16.94852
724.942	12.1596
725.127	32.75771
725.313	34.77811
725.499	33.16264
725.685	37.74348
725.87	27.79212
726.056	19.65893
726.242	34.11997
726.428	15.66905
726.613	30.50623
726.799	23.56787
726.985	17.90015
727.17	15.66138
727.356	35.86755
727.541	19.16575
727.727	24.73156
727.913	30.18134
728.098	21.55458
728.284	29.36543
728.469	16.37468
728.655	19.25478
728.84	30.09375
729.026	29.96292
729.211	31.22351
729.397	27.19339
729.582	30.25244
729.767	25.13301
729.953	28.05628
730.138	32.40262
730.323	11.97605
730.509	17.11829
730.694	36.53623
730.879	28.85054
731.065	27.42343
731.25	40.61104
731.435	28.85374
731.621	16.28075
731.806	22.45762
731.991	28.64843
732.176	15.92685
732.361	34.35107
732.547	26.4494
732.732	14.67742
732.917	41.91904
733.102	19.17471
733.287	21.43677
733.472	25.90739
733.657	27.02307
733.842	15.95898
734.027	24.0915
734.212	24.44811
734.397	21.10057
734.582	26.0816
734.767	31.55747
734.952	37.16082
735.137	11.13461
735.322	37.37492
735.507	28.6154
735.692	29.53465
735.877	44.81456
736.062	40.21845
736.247	29.70411
736.431	26.95571
736.616	37.23602
736.801	29.13341
736.986	28.65692
737.171	20.17793
737.355	16.0687
737.54	36.20791
737.725	25.82122
737.909	50.62394
738.094	22.39498
738.279	33.53684
738.463	25.95728
738.648	32.35296
738.833	31.84646
739.017	41.83879
739.202	25.01801
739.386	27.58315
739.571	21.00238
739.756	33.51689
739.94	28.31453
740.125	35.1577
740.309	21.41709
740.494	34.84618
740.678	29.72393
740.863	32.52776
741.047	30.91893
741.231	39.09063
741.416	22.94485
741.6	41.14801
741.785	22.64399
741.969	34.54491
742.153	38.7061
742.338	13.51703
742.522	28.04329
742.706	35.22163
742.89	18.66804
743.075	29.66051
743.259	42.48329
743.443	36.72863
743.627	37.00468
743.812	49.06377
743.996	9.87838
744.18	28.50706
744.364	25.65362
744.548	52.07588
744.732	27.91248
744.916	35.0788
745.1	34.52449
745.285	27.37469
745.469	34.23471
745.653	45.95095
745.837	18.96953
746.021	50.03794
746.205	39.055
746.389	31.30948
746.573	28.39983
746.757	42.36142
746.94	24.80657
747.124	41.20164
747.308	19.91438
747.492	40.84039
747.676	26.15997
747.86	49.33081
748.044	25.58898
748.227	16.0171
748.411	62.13335
748.595	32.46239
748.779	22.91535
748.963	33.19139
749.146	32.05984
749.33	23.09448
749.514	21.77982
749.697	40.30813
749.881	24.93189
750.065	23.13378
750.248	31.93533
750.432	53.07614
750.616	29.47539
750.799	18.71101
750.983	48.87637
751.166	58.35587
751.35	19.90411
751.533	38.83801
751.717	42.42624
751.9	47.0712
752.084	27.66166
752.267	21.92071
752.451	24.20589
752.634	32.14224
752.818	34.52417
753.001	39.89609
753.184	40.68968
753.368	33.41761
753.551	3.46911
753.734	26.02057
753.918	50.59591
754.101	23.73785
754.284	38.32389
754.467	28.61514
754.651	24.26355
754.834	24.93499
755.017	43.12906
755.2	39.94937
755.384	21.91261
755.567	39.82866
755.75	42.33406
755.933	28.27999
756.116	34.27051
756.299	25.74011
756.482	25.92003
756.665	36.27268
756.848	31.44338
757.032	35.9332
757.215	19.1556
757.398	24.24802
757.581	22.67955
757.764	59.15969
757.947	33.7387
758.129	42.63916
758.312	6.15395
758.495	33.50214
758.678	30.7903
758.861	28.30529
759.044	53.64573
759.227	25.67899
759.41	24.58493
759.592	39.53281
759.775	31.48257
759.958	41.79704
760.141	20.24363
760.324	54.52248
760.506	46.93749
760.689	41.86871
760.872	57.38106
761.054	34.2903
761.237	28.96618
761.42	34.30745
761.602	41.15737
761.785	35.08213
761.968	41.29357
762.15	48.90896
762.333	29.50101
762.515	34.48117
762.698	24.52431
762.88	36.36357
763.063	33.62902
763.245	37.49903
763.428	22.55771
763.61	24.24212
763.793	18.31922
763.975	31.61908
764.158	25.93693
764.34	24.5189
764.522	22.27397
764.705	25.63758
764.887	43.68243
765.069	16.70331
765.252	38.34171
765.434	38.47376
765.616	31.94599
765.799	27.11479
765.981	40.34281
766.163	21.15159
766.345	42.58885
766.528	26.15516
766.71	10.83605
766.892	34.85887
767.074	45.3226
767.256	29.3097
767.438	49.54932
767.62	35.55058
767.802	56.35819
767.985	42.93893
768.167	55.75317
768.349	28.84402
768.531	42.92731
768.713	35.95951
768.895	43.62922
769.077	39.28715
769.259	61.74107
769.441	93.31647
769.623	50.09045
769.804	53.8792
769.986	56.18449
770.168	68.70499
770.35	81.64782
770.532	58.74019
770.714	60.73215
770.896	62.07538
771.077	27.31202
771.259	64.47581
771.441	51.79146
771.623	72.0571
771.804	93.70222
771.986	25.3809
772.168	42.40763
772.35	64.39427
772.531	93.59472
772.713	51.21083
772.894	74.51069
773.076	49.36571
773.258	44.0787
773.439	71.08705
773.621	83.27454
773.802	34.34956
773.984	47.60826
774.166	59.54279
774.347	78.37116
774.529	71.86313
774.71	21.8691
774.891	45.3425
775.073	47.63848
775.254	83.10576
775.436	43.05004
775.617	85.14475
775.799	46.98423
775.98	82.80782
776.161	85.25983
776.343	85.92005
776.524	48.89912
776.705	47.21877
776.886	27.12802
777.068	61.18379
777.249	102.31829
777.43	91.44832
777.611	36.37305
777.793	51.14656
777.974	79.59852
778.155	48.91781
778.336	41.34445
778.517	93.53448
778.698	41.26225
778.879	21.13522
779.061	9.32776
779.242	62.70825
779.423	64.69903
779.604	49.35033
779.785	49.84846
779.966	59.18887
780.147	70.40837
780.328	73.59404
780.509	105.53328
780.69	69.21972
780.871	40.84467
781.051	28.7777
781.232	59.27095
781.413	60.58652
781.594	47.05192
781.775	45.59999
781.956	40.30593
782.137	20.774
782.317	46.94399
782.498	62.43066
782.679	54.55031
782.86	54.37277
783.04	40.17331
783.221	58.5948
783.402	90.84021
783.583	54.14346
783.763	67.50504
783.944	44.30641
784.124	30.63059
784.305	88.03616
784.486	62.20735
784.666	50.55738
784.847	24.25578
785.027	103.82856
785.208	38.59901
785.388	43.57369
785.569	41.57509
785.749	48.41632
785.93	43.41512
786.11	26.97012
786.291	60.5276
786.471	61.70723
786.652	69.27417
786.832	53.29947
787.012	58.86483
787.193	32.09203
787.373	55.95597
787.553	45.50582
787.734	57.64772
787.914	45.72794
788.094	61.93511
788.275	59.31718
788.455	47.69014
788.635	29.00757
788.815	56.67321
788.995	33.85136
789.176	27.84441
789.356	38.12714
789.536	49.14123
789.716	65.35793
789.896	39.94591
790.076	45.98616
790.256	59.77409
790.436	13.55683
790.616	38.3574
790.796	59.27893
790.976	48.81728
791.156	41.89792
791.336	68.69059
791.516	58.60831
791.696	46.23577
791.876	28.1513
792.056	56.29678
792.236	67.17485
792.416	68.46038
792.596	61.80527
792.776	58.30826
792.956	63.45583
793.135	83.18557
793.315	32.50629
793.495	77.28082
793.675	65.87527
793.854	71.01554
794.034	72.60008
794.214	32.43507
794.394	64.58934
794.573	71.18432
794.753	52.78004
794.933	40.88789
795.112	59.09564
795.292	64.88937
795.472	85.58044
795.651	26.9781
795.831	52.70315
796.01	46.32437
796.19	47.63136
796.369	48.88963
796.549	61.22287
796.728	47.96946
796.908	29.99623
797.087	34.12467
797.267	49.16974
797.446	31.54413
797.626	58.81622
797.805	64.05375
797.984	39.42517
798.164	64.50337
798.343	37.29061
798.522	58.52606
798.702	55.36716
798.881	31.4859
799.06	49.66249
799.239	20.63183
799.419	34.22731
799.598	80.3143
799.777	64.42294
799.956	73.62067
800.136	46.99612
800.315	36.50431
800.494	59.6358
800.673	72.18758
800.852	66.97437
801.031	72.44361
801.21	65.45203
801.389	48.06382
801.568	57.05031
801.747	89.48912
801.926	55.79753
802.105	81.57006
802.284	45.78489
802.463	79.48104
802.642	58.93762
802.821	54.46226
803	77.13698
803.179	72.86854
803.358	78.62317
803.537	42.40793
803.716	63.47665
803.895	42.32868
804.073	52.2371
804.252	45.1333
804.431	60.39052
804.61	53.24518
804.789	78.12582
804.967	46.83892
805.146	43.59593
805.325	95.80439
805.503	62.48654
805.682	31.83401
805.861	101.93007
806.039	76.30973
806.218	41.14982
806.397	62.44022
806.575	54.37699
806.754	59.26406
806.932	38.19631
807.111	85.80623
807.289	71.43847
807.468	61.18099
807.646	75.60042
807.825	62.56771
808.003	62.58361
808.182	74.30394
808.36	59.05625
808.539	38.83843
808.717	86.12231
808.895	39.03158
809.074	64.05577
809.252	57.75588
809.43	71.33818
809.609	82.86463
809.787	84.37407
809.965	50.6071
810.144	57.21967
810.322	48.54738
810.5	63.61888
810.678	53.08843
810.856	106.70869
811.035	80.06534
811.213	72.09064
811.391	81.77151
811.569	60.25935
811.747	119.69352
811.925	80.75282
812.103	40.1159
812.281	53.16683
812.459	100.75207
812.637	96.69782
812.816	81.49509
812.994	100.04454
813.171	81.51315
813.349	71.65325
813.527	89.90683
813.705	85.6265
813.883	108.26449
814.061	83.79607
814.239	102.64439
814.417	108.83616
814.595	67.19578
814.773	67.41222
814.95	64.65754
815.128	69.02295
815.306	60.57549
815.484	58.42383
815.662	42.53603
815.839	37.73867
816.017	47.1671
816.195	88.85745
816.372	57.31818
816.55	75.25728
816.728	87.93098
816.905	54.73029
817.083	93.5378
817.261	59.98925
817.438	111.27465
817.616	102.83483
817.793	49.78324
817.971	79.57243
818.148	73.58758
818.326	92.34087
818.503	68.76155
818.681	93.01495
818.858	49.47038
819.036	59.64859
819.213	63.51547
819.391	46.93573
819.568	44.23427
819.745	41.23526
819.923	70.64269
820.1	46.97437
820.277	39.57383
820.455	48.82845
820.632	49.05358
820.809	50.346
820.986	30.67267
821.164	24.20094
821.341	20.70736
821.518	30.2659
821.695	19.94611
821.872	18.35726
822.05	16.09636
822.227	11.89679
822.404	13.05108
822.581	16.34061
822.758	13.14285
822.935	13.04245
823.112	15.71768
823.289	12.13363
823.466	15.97604
823.643	14.99636
823.82	20.13216
823.997	17.45661
824.174	21.84579
824.351	31.81723
824.528	29.92768
824.705	25.52596
824.882	30.33725
825.059	40.50575
825.236	25.76471
825.412	27.88041
825.589	35.62693
825.766	50.38061
825.943	29.02165
826.12	34.30616
826.296	21.74648
826.473	29.00996
826.65	29.06101
826.827	36.39338
827.003	23.43904
827.18	24.47412
827.357	30.31544
827.533	26.88313
827.71	13.66312
827.887	23.06935
828.063	27.49002
828.24	23.9917
828.416	35.04864
828.593	28.07483
828.769	43.37097
828.946	51.59848
829.122	52.77265
829.299	52.69628
829.475	26.12894
829.652	48.00638
829.828	81.59269
830.005	50.79324
830.181	63.40421
830.357	45.39453
830.534	68.966
830.71	51.90648
830.886	66.49365
831.063	60.07189
831.239	84.8316
831.415	40.39162
831.592	85.63074
831.768	53.92516
831.944	40.35128
832.12	82.61296
832.296	76.74656
832.473	62.96748
832.649	45.55912
832.825	63.27638
833.001	35.65242
833.177	54.30587
833.353	47.34174
833.529	25.33864
833.705	37.78005
833.881	26.57046
834.058	26.66839
834.234	29.70375
834.41	28.4249
834.586	25.30176
834.761	30.52835
834.937	33.84331
835.113	35.10346
835.289	32.10523
835.465	42.28416
835.641	34.48975
835.817	39.54961
835.993	75.93725
836.169	34.67373
836.344	56.51019
836.52	66.43477
836.696	69.62394
836.872	40.71963
837.048	135.55729
837.223	47.87271
837.399	104.20647
837.575	83.80019
837.75	76.24764
837.926	108.0542
838.102	177.5911
838.277	126.39381
838.453	164.76074
838.628	155.74791
838.804	57.36636
838.98	158.92323
839.155	77.29572
839.331	106.6418
839.506	74.90837
839.682	68.50254
839.857	89.26305
840.033	106.24781
840.208	49.32802
840.384	21.8441
840.559	52.06536
840.734	80.94554
840.91	119.92805
841.085	75.48527
841.26	69.95174
841.436	71.03717
841.611	65.86943
841.786	105.58742
841.962	148.15055
842.137	83.53353
842.312	44.75128
842.487	82.81125
842.663	64.92352
842.838	76.45156
843.013	241.70361
843.188	136.56842
843.363	115.56139
843.538	220.30941
843.714	214.67816
843.889	216.03008
844.064	226.82874
844.239	191.25376
844.414	274.67909
844.589	152.51154
844.764	264.13672
844.939	245.36047
845.114	291.87368
845.289	292.59815
845.464	380.02238
845.639	264.88864
845.814	118.29838
845.989	182.27561
846.163	186.78135
846.338	207.80658
846.513	307.18582
846.688	192.6338
846.863	226.32044
847.038	164.91276
847.212	166.16449
847.387	208.88082
847.562	220.20511
847.737	240.03824
847.911	125.67956
848.086	130.11409
848.261	344.9903
848.435	194.66104
848.61	296.38482
848.785	117.73169
848.959	268.28547
849.134	336.96764
849.308	405.95952
849.483	193.42921
849.658	316.37641
849.832	166.54952
850.007	144.30506
850.181	475.48203
850.356	158.292
850.53	329.35312
850.705	137.41497
850.879	85.63608
851.053	201.08254
851.228	174.54405
851.402	245.56325
851.577	278.27117
851.751	381.61487
851.925	213.27164
852.099	91.65319
852.274	149.75503
852.448	204.05586
852.622	232.14653
852.797	174.88261
852.971	228.18877
853.145	268.42304
853.319	447.14869
853.493	314.19812
853.668	202.71551
853.842	381.28425
854.016	327.70569
854.19	403.02241
854.364	239.76535
854.538	272.88923
854.712	289.12871
854.886	240.3685
855.06	248.51213
855.234	58.44479
855.408	362.10845
855.582	281.23166
855.756	326.67479
855.93	336.1852
856.104	251.9318
856.278	294.86042
856.452	230.14739
856.626	289.58466
856.8	403.76591
856.973	268.40732
857.147	295.64519
857.321	281.00142
857.495	280.79656
857.669	225.81395
857.842	197.55035
858.016	312.25984
858.19	140.18275
858.364	529.13888
858.537	196.94154
858.711	223.1656
858.885	207.17626
859.058	152.83181
859.232	107.73456
859.405	106.28545
859.579	302.12883
859.753	286.79422
859.926	158.76945
860.1	118.54285
860.273	248.4948
860.447	355.08709
860.62	195.59224
860.794	371.89332
860.967	221.52731
861.141	338.11352
861.314	502.82945
861.487	229.3527
861.661	312.68986
861.834	393.13736
862.008	288.43132
862.181	230.62105
862.354	267.60327
862.528	297.19845
862.701	190.97075
862.874	140.57675
863.047	180.22068
863.221	199.48264
863.394	99.56446
863.567	307.18317
863.74	73.36894
863.913	336.20924
864.087	286.66992
864.26	294.46878
864.433	231.12492
864.606	414.74845
864.779	202.96187
864.952	102.00627
865.125	202.30931
865.298	215.02567
865.471	208.59498
865.644	353.80168
865.817	290.16956
865.99	329.52941
866.163	312.71899
866.336	188.78767
866.509	213.79769
866.682	209.37541
866.855	320.02959
867.028	124.65142
867.2	269.82495
867.373	70.35441
867.546	232.75023
867.719	413.10441
867.892	272.67425
868.064	151.80326
868.237	238.46694
868.41	207.23846
868.583	125.32765
868.755	126.56141
868.928	182.13309
869.101	403.53017
869.273	295.40201
869.446	241.05727
869.619	302.07526
869.791	211.82361
869.964	311.17037
870.136	290.83314
870.309	213.48605
870.481	239.33832
870.654	109.53702
870.826	220.23026
870.999	168.55734
871.171	264.01912
871.344	146.42785
871.516	170.70178
871.689	153.15411
871.861	208.28504
872.033	172.79608
872.206	180.02943
872.378	252.47735
872.55	200.67486
872.723	131.42824
872.895	208.55419
873.067	285.74251
873.24	250.96524
873.412	168.38213
873.584	185.3231
873.756	190.4666
873.928	233.45401
874.101	237.71005
874.273	239.92595
874.445	87.84852
874.617	126.63861
874.789	223.03775
874.961	162.75034
875.133	244.61194
875.305	198.34378
875.477	137.46235
875.649	104.1688
875.821	142.47672
875.993	331.88984
876.165	142.1348
876.337	215.08787
876.509	204.81765
876.681	216.0679
876.853	177.04513
877.025	196.35307
877.197	139.69405
877.369	124.29576
877.541	231.25293
877.712	54.29093
877.884	112.99068
878.056	203.5762
878.228	111.35737
878.4	238.32772
878.571	112.0655
878.743	81.97084
878.915	159.66941
879.086	104.11809
879.258	138.73367
879.43	113.14911
879.601	93.7229
879.773	96.85616
879.945	25.23331
880.116	38.73616
880.288	22.90756
880.459	25.49385
880.631	18.42649
880.802	22.71271
880.974	21.63005
881.145	14.13393
881.317	20.828
881.488	14.37242
881.66	16.21251
881.831	15.39747
882.002	22.88465
882.174	15.88411
882.345	22.35481
882.517	9.08348
882.688	30.28645
882.859	22.75381
883.03	39.26116
883.202	40.95467
883.373	33.02635
883.544	34.48425
883.715	58.26705
883.887	52.01741
884.058	42.51818
884.229	59.93064
884.4	60.1656
884.571	72.40083
884.742	59.18693
884.914	65.32466
885.085	93.47375
885.256	133.17829
885.427	98.41836
885.598	125.48565
885.769	125.07904
885.94	117.19325
886.111	75.21151
886.282	132.70343
886.453	110.59338
886.624	86.16732
886.795	147.12378
886.966	117.82466
887.136	157.011
887.307	116.63095
887.478	225.92248
887.649	171.906
887.82	181.69909
887.991	155.96882
888.161	226.64523
888.332	206.07333
888.503	94.89993
888.674	260.98902
888.844	307.74425
889.015	238.34254
889.186	125.06752
889.356	270.54292
889.527	101.44213
889.698	399.06426
889.868	153.88323
890.039	233.72353
890.209	181.42753
890.38	230.84517
890.551	229.12749
890.721	333.39988
890.892	268.19833
891.062	182.88823
891.233	213.74153
891.403	198.67404
891.574	132.7837
891.744	157.4473
891.914	200.92434
892.085	159.02649
892.255	48.7765
892.425	268.40992
892.596	191.73631
892.766	210.40563
892.936	265.79985
893.107	214.44191
893.277	114.11623
893.447	84.43729
893.618	62.99639
893.788	128.56095
893.958	69.7645
894.128	63.42536
894.298	82.89807
894.468	99.16155
894.639	42.41075
894.809	31.17186
894.979	53.52039
895.149	65.85228
895.319	50.88161
895.489	78.01924
895.659	100.39851
895.829	65.73971
895.999	74.17397
896.169	62.51999
896.339	80.43237
896.509	167.92817
896.679	170.789
896.849	176.41687
897.019	260.1661
897.189	190.65456
897.358	161.13044
897.528	250.41136
897.698	96.1289
897.868	212.51099
898.038	352.09504
898.208	420.81875
898.377	104.75271
898.547	337.58703
898.717	533.14863
898.886	225.26681
899.056	344.49014
899.226	496.59959
899.395	330.41018
899.565	524.32127
899.735	343.43991
899.904	587.94261
900.074	552.12797
900.244	176.42957
900.413	682.94958
900.583	182.56968
900.752	357.48104
900.922	563.35763
901.091	42.93511
901.261	437.10493
901.43	363.5526
901.599	407.81172
901.769	797.95639
901.938	401.82653
902.108	328.8496
902.277	458.04596
902.446	135.92897
902.616	167.39905
902.785	176.3739
902.954	338.76683
903.124	209.17535
903.293	148.54358
903.462	78.07661
903.631	114.64114
903.801	87.37895
903.97	42.76961
904.139	76.73178
904.308	60.52051
904.477	47.6724
904.646	31.01395
904.816	51.09765
904.985	74.26393
905.154	120.59088
