Data from WindowProjectSample_Transmission__71__00071__05113334574051921.txt Node

Date: Mon May 05 18:40:16 EDT 2025
User: jessi
Spectrometer: SR400872
Trigger mode: 0
Integration Time (sec): 5.000010E-1
Scans to average: 20
Electric dark correction enabled: true
Nonlinearity correction enabled: true
Boxcar width: 0
XAxis mode: Wavelengths
Number of Pixels in Spectrum: 3648
>>>>>Begin Spectral Data<<<<<
184.909	21100.17774
185.132	-5267.40713
185.355	-3236.07332
185.578	-18123.21106
185.801	2330.49131
186.024	10528.32958
186.247	-1887.21127
186.47	1284.53978
186.693	282.00596
186.916	306.21609
187.139	-3847.48711
187.362	3402.61873
187.585	4293.92085
187.808	3264.38065
188.031	83.48948
188.254	-52649.76988
188.476	-633.35689
188.699	6268.52208
188.922	584.80708
189.145	-15821.20666
189.368	-644.96752
189.591	-1335.34793
189.813	3113.25397
190.036	-51722.08017
190.259	-928.09031
190.482	-4246.34703
190.705	7188.28776
190.927	-2487.60675
191.15	13528.1754
191.373	3437.48693
191.595	-8531.5975
191.818	-4192.89839
192.041	-6592.49737
192.263	-3274.89771
192.486	-881.26813
192.709	-4001.08834
192.931	7647.07198
193.154	-27977.86936
193.377	-2841.84356
193.599	-2581.26253
193.822	-9122.01551
194.044	-1847.27569
194.267	1141.70954
194.489	320.40196
194.712	-43515.92458
194.934	-32691.69171
195.157	1272.6605
195.379	1320.43654
195.602	-6961.66784
195.824	-1359.25181
196.047	-9049.98057
196.269	2793.58273
196.492	-6491.58835
196.714	28016.41736
196.936	-8669.77029
197.159	-1240.5942
197.381	1222.05924
197.604	504.56575
197.826	12138.13759
198.048	-10937.66349
198.271	-2915.34814
198.493	7916.39472
198.715	2371.0455
198.938	-483.69834
199.16	7289.04364
199.382	-103021.32589
199.604	2708.26353
199.827	-1074.20482
200.049	-2965.63224
200.271	14154.09179
200.493	1248.41787
200.715	-37890.70379
200.938	-6194.3787
201.16	-4363.83147
201.382	20257.85655
201.604	2352.88677
201.826	2321.27175
202.048	-1936.86024
202.27	-2053.70289
202.492	-36133.47395
202.715	2909.62208
202.937	-4626.68367
203.159	-6217.14175
203.381	1432.49941
203.603	6832.74735
203.825	6662.15133
204.047	2360.98173
204.269	-2842.36128
204.491	2205.70731
204.713	5928.59986
204.935	-471043.91515
205.156	1107.67104
205.378	-2937.88938
205.6	1705.39573
205.822	153461.6227
206.044	-1098.09774
206.266	1549.53096
206.488	4552.02168
206.71	-4982.20273
206.932	1085.79686
207.153	12691.5893
207.375	-7163.92935
207.597	-38218.84094
207.819	-2766.89088
208.041	2491.11111
208.262	495.30657
208.484	690.038
208.706	-818.44841
208.927	-819.2841
209.149	544.808
209.371	-2947.27655
209.593	-277.86346
209.814	-816.16653
210.036	521.66852
210.258	-726.75935
210.479	1785.54657
210.701	1653.81218
210.922	3256.74203
211.144	-4069.31983
211.366	2118.44204
211.587	7434.88678
211.809	-8261.36676
212.03	2359.38446
212.252	403.7568
212.473	1967.8683
212.695	-5711.99212
212.916	2764.23347
213.138	-658.1088
213.359	3715.31865
213.581	5374.77732
213.802	-784.76378
214.024	1141.11915
214.245	2090.84408
214.466	3461.46896
214.688	-3329.89671
214.909	-1228.44583
215.131	-1755.51007
215.352	-3052.27656
215.573	15129.55397
215.795	5253.30217
216.016	5495.2306
216.237	820.52873
216.459	3568.30076
216.68	1923.90781
216.901	4944.73177
217.122	-3195.39249
217.344	-11568.81781
217.565	3409.36969
217.786	9127.30692
218.007	15666.33485
218.228	-741.74828
218.45	5743.78248
218.671	826.46244
218.892	37278.39993
219.113	1457.18378
219.334	-278.80515
219.555	9097.0741
219.776	2984.38079
219.997	23221.33174
220.219	2755.1217
220.44	-10832.6258
220.661	447.61389
220.882	1492.47532
221.103	-1121.02934
221.324	2318.06962
221.545	2350.52458
221.766	-8951.34602
221.987	979.44575
222.208	1768.65378
222.429	4311.48936
222.65	178.66454
222.87	16064.48124
223.091	735.17802
223.312	541.36784
223.533	1372.36372
223.754	1518.65558
223.975	1356.39804
224.196	2061.98867
224.417	1294.54167
224.637	586.54412
224.858	35.4053
225.079	1079.01437
225.3	675.18458
225.521	3763.50578
225.741	457.20449
225.962	482.61111
226.183	148.15645
226.404	663.25945
226.624	446.62027
226.845	658.74802
227.066	430.62267
227.286	268.24137
227.507	137.1118
227.728	116.05115
227.948	238.34809
228.169	75.08103
228.389	88.95862
228.61	44.9255
228.831	62.45774
229.051	1.34506
229.272	38.62547
229.492	59.46896
229.713	13.39713
229.933	36.20988
230.154	30.44295
230.374	54.11588
230.595	38.5402
230.815	22.86982
231.036	37.84778
231.256	-9.61163
231.477	69.359
231.697	39.81755
231.917	40.02799
232.138	55.09712
232.358	104.59531
232.579	108.02383
232.799	15.51786
233.019	105.12368
233.24	114.30894
233.46	37.09835
233.68	63.99187
233.901	43.72063
234.121	25.50095
234.341	14.47872
234.561	-6.2799
234.782	22.34567
235.002	68.52814
235.222	-4.05034
235.442	65.70919
235.662	34.35808
235.883	62.90095
236.103	52.09137
236.323	37.70442
236.543	27.06812
236.763	42.93134
236.983	43.2795
237.203	41.98352
237.423	63.2844
237.643	85.58082
237.864	75.42544
238.084	18.92232
238.304	25.08722
238.524	46.97095
238.744	41.99307
238.964	72.86195
239.184	61.42564
239.404	64.24429
239.624	34.07976
239.843	61.48843
240.063	35.85437
240.283	21.5696
240.503	26.84313
240.723	25.32222
240.943	14.31626
241.163	19.79958
241.383	14.87584
241.603	7.44559
241.822	9.7949
242.042	6.24924
242.262	8.21016
242.482	9.1805
242.702	10.98111
242.921	2.62657
243.141	6.89847
243.361	6.69606
243.581	9.14793
243.8	7.5459
244.02	5.07082
244.24	9.25065
244.459	9.06047
244.679	17.74753
244.899	11.71525
245.118	12.12049
245.338	11.90904
245.558	13.57372
245.777	8.73359
245.997	10.48875
246.216	10.20091
246.436	6.22208
246.655	4.71733
246.875	3.23548
247.094	6.28211
247.314	2.06372
247.533	3.58818
247.753	4.35357
247.972	3.18332
248.192	1.14834
248.411	1.74425
248.631	3.62814
248.85	4.74519
249.07	3.90509
249.289	5.99097
249.508	5.19398
249.728	6.83747
249.947	7.41493
250.166	9.10205
250.386	4.46916
250.605	6.95732
250.824	10.16444
251.044	7.99452
251.263	28.51346
251.482	14.96305
251.701	11.51357
251.921	-0.35482
252.14	3.069
252.359	3.80523
252.578	9.91518
252.798	3.42702
253.017	8.95525
253.236	4.21648
253.455	5.75506
253.674	10.53255
253.893	5.23763
254.112	7.60687
254.331	10.87957
254.551	8.38973
254.77	3.65345
254.989	13.34216
255.208	11.11299
255.427	14.96866
255.646	11.66405
255.865	21.33221
256.084	8.48449
256.303	10.75326
256.522	13.82069
256.741	3.08177
256.96	2.57665
257.179	7.69462
257.397	11.11065
257.616	5.53866
257.835	5.85814
258.054	15.2529
258.273	10.89053
258.492	11.00863
258.711	6.48419
258.93	3.01632
259.148	4.73032
259.367	4.75927
259.586	5.82079
259.805	2.22209
260.023	5.44484
260.242	4.01413
260.461	2.74444
260.68	1.21668
260.898	4.44099
261.117	1.43615
261.336	0.91502
261.554	3.39156
261.773	3.57706
261.992	0.618
262.21	3.33856
262.429	3.39251
262.648	7.56295
262.866	8.20472
263.085	5.81481
263.303	4.85338
263.522	8.69679
263.74	9.13166
263.959	15.33267
264.178	6.8062
264.396	6.92589
264.615	4.88558
264.833	10.87186
265.051	9.0628
265.27	10.73425
265.488	10.87229
265.707	6.57564
265.925	11.03286
266.144	4.80661
266.362	5.867
266.58	5.36752
266.799	5.15481
267.017	6.06517
267.235	5.31883
267.454	3.20954
267.672	1.67528
267.89	4.26137
268.109	4.36175
268.327	4.24993
268.545	0.86686
268.763	4.09933
268.982	1.60392
269.2	4.2397
269.418	2.95212
269.636	1.98851
269.854	4.61383
270.073	3.04615
270.291	1.79501
270.509	1.75417
270.727	4.533
270.945	7.42955
271.163	7.23626
271.381	1.33803
271.599	3.26291
271.817	5.35489
272.036	1.94346
272.254	3.18504
272.472	2.45291
272.69	2.56801
272.908	2.3414
273.126	4.58096
273.344	5.21626
273.562	1.82881
273.779	2.44123
273.997	3.70138
274.215	4.16422
274.433	2.91829
274.651	4.38572
274.869	4.61447
275.087	2.8649
275.305	4.00536
275.523	2.50454
275.74	2.8962
275.958	5.45274
276.176	8.25845
276.394	2.32142
276.612	3.19951
276.829	3.38819
277.047	2.91526
277.265	2.9421
277.483	3.58126
277.7	4.32479
277.918	3.6313
278.136	6.33197
278.353	2.94717
278.571	1.73336
278.789	4.44423
279.006	0.7748
279.224	2.75599
279.442	5.32336
279.659	3.46297
279.877	2.42047
280.094	5.89803
280.312	1.11757
280.529	3.5178
280.747	0.8595
280.964	2.52811
281.182	6.08032
281.399	2.68595
281.617	3.86159
281.834	2.50456
282.052	1.86987
282.269	3.10931
282.487	2.62788
282.704	2.17113
282.921	2.24429
283.139	3.28729
283.356	4.14881
283.574	3.81116
283.791	1.84933
284.008	5.72403
284.226	3.00911
284.443	3.28512
284.66	4.28231
284.877	3.42405
285.095	2.09531
285.312	1.74016
285.529	0.81201
285.746	0.74592
285.964	1.99749
286.181	1.39213
286.398	1.92335
286.615	2.74261
286.832	2.64019
287.05	0.45704
287.267	1.83538
287.484	1.75651
287.701	2.75542
287.918	2.59438
288.135	2.60086
288.352	1.16353
288.569	1.49465
288.786	2.35477
289.003	1.86043
289.22	2.92956
289.437	1.67793
289.654	2.85299
289.871	3.05609
290.088	2.98099
290.305	2.30018
290.522	1.73195
290.739	2.0801
290.956	3.19318
291.173	3.6637
291.39	3.40777
291.607	2.42423
291.824	1.72607
292.04	1.18605
292.257	2.88706
292.474	3.30102
292.691	1.97976
292.908	0.95444
293.125	1.79209
293.341	1.10583
293.558	5.09531
293.775	1.83605
293.992	1.97769
294.208	0.76167
294.425	1.30116
294.642	1.85735
294.858	2.66279
295.075	0.60816
295.292	1.90337
295.508	2.28416
295.725	4.10866
295.942	1.6455
296.158	1.18096
296.375	1.97138
296.591	1.53663
296.808	1.63862
297.024	1.9125
297.241	2.16937
297.458	2.37065
297.674	0.20034
297.891	1.89724
298.107	1.35838
298.323	1.05049
298.54	3.08454
298.756	1.19382
298.973	0.53511
299.189	3.10636
299.406	1.22432
299.622	2.77547
299.838	2.70375
300.055	2.59333
300.271	0.52788
300.487	0.87203
300.704	1.21489
300.92	0.58789
301.136	4.17501
301.353	2.60895
301.569	1.79803
301.785	2.21793
302.001	2.69335
302.218	2.22452
302.434	2.33704
302.65	0.70774
302.866	1.59828
303.083	3.91045
303.299	3.72125
303.515	1.89077
303.731	2.01847
303.947	0.50249
304.163	1.15973
304.379	2.07035
304.595	2.37735
304.812	1.26425
305.028	1.27041
305.244	1.70352
305.46	2.58616
305.676	2.59927
305.892	3.0748
306.108	2.2097
306.324	1.51864
306.54	3.72064
306.756	2.56987
306.972	2.39319
307.187	1.6045
307.403	3.36402
307.619	1.56207
307.835	3.07023
308.051	3.44408
308.267	0.93588
308.483	2.86017
308.699	2.37299
308.914	1.94585
309.13	1.72207
309.346	0.49931
309.562	0.88746
309.778	0.63329
309.993	2.53473
310.209	1.93674
310.425	0.89791
310.641	1.63545
310.856	0.95496
311.072	0.82432
311.288	1.69991
311.503	1.85727
311.719	0.35558
311.935	0.21674
312.15	2.19402
312.366	1.77823
312.581	2.18875
312.797	1.6711
313.013	2.45978
313.228	1.23597
313.444	1.85618
313.659	1.32427
313.875	2.21195
314.09	1.74925
314.306	3.13045
314.521	2.69009
314.737	2.45045
314.952	1.88013
315.168	1.7219
315.383	2.26667
315.599	1.75718
315.814	1.57399
316.029	2.49403
316.245	0.7237
316.46	0.55604
316.675	3.14097
316.891	3.48454
317.106	4.62031
317.321	2.28657
317.537	2.42617
317.752	2.63267
317.967	2.86488
318.183	1.0892
318.398	1.48439
318.613	2.76554
318.828	3.16871
319.043	2.70389
319.259	1.59976
319.474	2.16765
319.689	3.14532
319.904	0.39453
320.119	2.53093
320.334	2.33582
320.549	1.64427
320.765	2.89815
320.98	2.14783
321.195	2.74836
321.41	1.90086
321.625	2.58003
321.84	3.74736
322.055	3.66957
322.27	1.40386
322.485	0.95253
322.7	2.38904
322.915	2.89005
323.13	0.9824
323.345	3.40589
323.56	2.88153
323.775	2.47835
323.989	2.20219
324.204	2.24262
324.419	2.88723
324.634	0.88168
324.849	1.73415
325.064	4.94587
325.279	2.77795
325.493	2.36905
325.708	2.79102
325.923	1.24851
326.138	1.37414
326.352	3.43867
326.567	2.99056
326.782	1.68029
326.997	1.28898
327.211	2.45015
327.426	2.31747
327.641	1.55288
327.855	0.66364
328.07	2.18123
328.285	3.42935
328.499	1.44966
328.714	2.17001
328.928	2.65257
329.143	1.7445
329.358	2.82895
329.572	2.84772
329.787	3.11667
330.001	4.19374
330.216	0.9217
330.43	3.67043
330.645	3.52919
330.859	2.72533
331.074	1.36621
331.288	2.19086
331.503	3.11712
331.717	1.14097
331.931	2.09667
332.146	2.09287
332.36	3.47814
332.575	2.42143
332.789	2.22516
333.003	2.10942
333.218	2.4339
333.432	1.32117
333.646	2.66249
333.86	3.4371
334.075	3.3457
334.289	1.5287
334.503	1.23482
334.717	2.26913
334.932	2.35794
335.146	3.27212
335.36	1.6513
335.574	2.53884
335.788	2.47834
336.003	2.8775
336.217	2.48514
336.431	2.48367
336.645	1.47273
336.859	0.91595
337.073	1.8044
337.287	2.14397
337.501	1.08181
337.715	2.17938
337.929	2.83388
338.143	0.91738
338.357	1.88555
338.571	1.19153
338.785	2.31828
338.999	1.72412
339.213	1.44687
339.427	0.71608
339.641	3.15099
339.855	1.73756
340.069	1.44047
340.283	2.86774
340.497	3.66074
340.711	2.26422
340.924	1.69525
341.138	0.92775
341.352	0.83518
341.566	2.05201
341.78	0.45254
341.993	1.47486
342.207	1.03541
342.421	2.08003
342.635	1.82259
342.848	1.5386
343.062	0.25861
343.276	1.31185
343.49	3.7126
343.703	1.28778
343.917	2.7716
344.131	2.65365
344.344	1.3467
344.558	1.55196
344.771	1.00308
344.985	3.34184
345.199	3.14101
345.412	2.06872
345.626	2.16805
345.839	0.59052
346.053	0.92687
346.266	0.97645
346.48	2.52537
346.693	2.16813
346.907	2.09688
347.12	1.08117
347.334	2.16083
347.547	2.17122
347.76	1.36974
347.974	2.87918
348.187	2.05335
348.401	1.49266
348.614	1.38046
348.827	1.48363
349.041	2.22857
349.254	0.481
349.467	1.60436
349.681	0.72831
349.894	1.2946
350.107	2.84732
350.32	3.24059
350.534	0.53462
350.747	1.33489
350.96	1.15614
351.173	1.20654
351.386	1.59843
351.6	1.31615
351.813	1.27301
352.026	1.62082
352.239	0.65617
352.452	1.56986
352.665	2.41867
352.878	1.73641
353.092	3.38939
353.305	2.31385
353.518	1.88079
353.731	1.0385
353.944	2.78896
354.157	1.27131
354.37	1.0295
354.583	0.97432
354.796	0.34915
355.009	2.57557
355.222	1.9956
355.435	1.68205
355.647	2.37703
355.86	0.80475
356.073	1.67908
356.286	1.329
356.499	2.21286
356.712	1.84673
356.925	2.12439
357.138	2.37721
357.35	0.83403
357.563	1.40223
357.776	1.68444
357.989	1.20769
358.201	1.94874
358.414	1.57879
358.627	2.62338
358.84	1.38943
359.052	0.72464
359.265	0.85816
359.478	2.35194
359.69	-0.37492
359.903	1.96956
360.116	2.16546
360.328	0.31017
360.541	2.13528
360.753	0.63406
360.966	0.97678
361.179	1.15397
361.391	1.02619
361.604	0.77101
361.816	1.0783
362.029	0.94132
362.241	0.76765
362.454	0.87467
362.666	0.70752
362.879	1.36138
363.091	1.1484
363.304	0.8172
363.516	1.26422
363.728	0.59338
363.941	1.67762
364.153	0.97191
364.366	-0.13743
364.578	0.60695
364.79	1.57382
365.003	1.23747
365.215	0.98417
365.427	1.72388
365.639	2.22053
365.852	1.45729
366.064	3.16837
366.276	1.08101
366.488	1.71859
366.701	0.96859
366.913	1.30238
367.125	1.17587
367.337	0.8111
367.549	0.9709
367.762	1.52024
367.974	1.50223
368.186	0.74529
368.398	2.08564
368.61	1.85799
368.822	1.87232
369.034	1.40963
369.246	1.71827
369.458	3.43439
369.67	0.68398
369.882	2.84706
370.094	0.11943
370.306	2.68349
370.518	1.23272
370.73	0.77187
370.942	0.86391
371.154	1.22417
371.366	0.91578
371.578	1.41351
371.79	0.70301
372.002	2.15819
372.214	2.61735
372.425	1.46015
372.637	2.16303
372.849	1.53448
373.061	-0.00675
373.273	1.55009
373.484	1.64943
373.696	1.92684
373.908	-0.06091
374.12	2.24588
374.331	1.49576
374.543	0.83303
374.755	0.688
374.967	1.53007
375.178	1.75381
375.39	1.13538
375.602	1.35321
375.813	0.38784
376.025	0.48094
376.236	1.41018
376.448	1.51955
376.66	0.86092
376.871	0.85949
377.083	2.21905
377.294	2.0917
377.506	0.87883
377.717	2.11817
377.929	1.40035
378.14	0.72375
378.352	1.54694
378.563	1.37297
378.775	2.12134
378.986	0.64623
379.197	1.18089
379.409	0.89033
379.62	1.84831
379.832	1.67913
380.043	1.00829
380.254	1.31004
380.466	0.55911
380.677	3.34819
380.888	2.76117
381.1	2.93263
381.311	2.86731
381.522	1.15239
381.733	3.34167
381.945	1.13956
382.156	1.442
382.367	0.86379
382.578	3.16452
382.789	3.02801
383.001	1.0006
383.212	1.93057
383.423	2.27665
383.634	2.24498
383.845	1.54507
384.056	0.98185
384.267	1.2732
384.478	1.16419
384.69	0.50902
384.901	1.53672
385.112	1.51473
385.323	2.22487
385.534	1.59964
385.745	1.37634
385.956	1.61012
386.167	0.67058
386.378	1.55537
386.588	0.46601
386.799	0.80082
387.01	0.14414
387.221	1.79486
387.432	1.00955
387.643	2.53716
387.854	1.17767
388.065	0.97563
388.275	1.11822
388.486	0.98632
388.697	0.97305
388.908	0.94829
389.119	2.02963
389.329	2.40279
389.54	1.22078
389.751	1.44778
389.962	2.01007
390.172	1.4142
390.383	0.74496
390.594	0.8465
390.804	0.78098
391.015	0.80172
391.226	1.17596
391.436	1.46265
391.647	1.38787
391.858	1.5795
392.068	0.18977
392.279	0.39465
392.489	1.10235
392.7	1.98806
392.91	0.38909
393.121	0.65525
393.331	1.38639
393.542	1.88304
393.752	1.48661
393.963	1.30002
394.173	1.10412
394.384	1.46598
394.594	1.11946
394.804	0.38687
395.015	1.21149
395.225	1.35355
395.436	0.50312
395.646	1.50376
395.856	0.50482
396.067	0.2427
396.277	1.83756
396.487	1.38986
396.697	1.08118
396.908	1.44277
397.118	1.55165
397.328	1.26333
397.538	1.91193
397.749	0.59333
397.959	1.6279
398.169	1.74338
398.379	0.39361
398.589	1.69116
398.8	1.07127
399.01	0.93497
399.22	0.99839
399.43	2.70866
399.64	0.88951
399.85	1.64522
400.06	1.01942
400.27	0.6586
400.48	1.16981
400.69	2.2312
400.9	0.79718
401.11	0.6642
401.32	1.73316
401.53	0.93348
401.74	2.26815
401.95	1.65273
402.16	0.37158
402.37	1.29376
402.58	0.70654
402.79	1.67334
403	1.9025
403.209	0.84808
403.419	1.77939
403.629	0.71092
403.839	1.63864
404.049	1.55544
404.258	0.64774
404.468	0.59729
404.678	1.35687
404.888	1.52798
405.097	0.42583
405.307	1.04269
405.517	1.43524
405.727	1.14225
405.936	0.91831
406.146	1.22083
406.356	1.91591
406.565	1.08687
406.775	0.77983
406.984	0.77909
407.194	2.07376
407.404	1.16091
407.613	1.42972
407.823	1.63943
408.032	1.70546
408.242	1.86463
408.451	0.90325
408.661	1.09385
408.87	2.25338
409.08	0.72286
409.289	1.38596
409.499	1.24648
409.708	1.27894
409.918	-0.03561
410.127	1.16357
410.336	2.18919
410.546	1.5158
410.755	0.90775
410.964	0.92815
411.174	0.70096
411.383	1.37689
411.592	1.54622
411.802	0.508
412.011	1.73704
412.22	1.10826
412.429	2.25151
412.639	2.0224
412.848	2.01737
413.057	1.97798
413.266	2.11174
413.475	1.19012
413.685	1.76983
413.894	1.80923
414.103	2.04092
414.312	1.9061
414.521	1.2754
414.73	1.29113
414.939	2.63089
415.148	1.59057
415.357	1.3315
415.566	0.86539
415.776	0.99675
415.985	0.93184
416.194	1.73174
416.403	2.10828
416.611	0.40612
416.82	0.81442
417.029	1.19482
417.238	0.71614
417.447	0.4681
417.656	0.76846
417.865	0.55329
418.074	0.70955
418.283	0.85164
418.492	1.26616
418.7	1.19589
418.909	1.64094
419.118	1.03458
419.327	1.1593
419.536	0.96825
419.744	0.57673
419.953	1.46587
420.162	1.41164
420.371	0.56197
420.579	0.39169
420.788	1.35641
420.997	1.14374
421.205	1.27752
421.414	1.02338
421.623	0.82152
421.831	0.6484
422.04	1.26674
422.249	0.48736
422.457	1.24575
422.666	0.60944
422.874	1.4947
423.083	1.46761
423.291	1.44058
423.5	1.01176
423.708	1.22936
423.917	1.4582
424.125	1.15487
424.334	0.82483
424.542	2.38999
424.751	1.71592
424.959	1.56445
425.167	1.74079
425.376	1.67288
425.584	1.07657
425.793	1.44601
426.001	0.70126
426.209	1.44145
426.418	0.7734
426.626	0.96454
426.834	0.72993
427.042	1.2313
427.251	0.86687
427.459	1.68358
427.667	1.308
427.875	0.68461
428.084	1.00566
428.292	1.97439
428.5	1.48104
428.708	0.93709
428.916	0.70213
429.124	1.4053
429.333	1.04954
429.541	1.06152
429.749	1.28095
429.957	1.25347
430.165	2.73988
430.373	0.5857
430.581	1.47062
430.789	2.17687
430.997	1.09011
431.205	0.94889
431.413	1.30025
431.621	1.09997
431.829	1.65002
432.037	1.0631
432.245	1.22377
432.453	1.39053
432.661	1.00843
432.869	2.26623
433.076	0.64378
433.284	1.09564
433.492	1.38858
433.7	1.72778
433.908	0.92331
434.116	1.22737
434.323	1.20781
434.531	1.18109
434.739	1.39056
434.947	1.84993
435.154	1.50919
435.362	1.39487
435.57	1.11818
435.778	1.02762
435.985	1.52776
436.193	1.0676
436.401	1.90576
436.608	1.36262
436.816	1.09541
437.023	2.18538
437.231	2.14447
437.439	1.4604
437.646	1.63196
437.854	1.50499
438.061	1.65417
438.269	1.22762
438.476	1.65633
438.684	1.2642
438.891	1.03598
439.099	0.7278
439.306	0.51194
439.514	0.70376
439.721	1.34257
439.929	0.91362
440.136	1.51733
440.343	1.43384
440.551	1.06763
440.758	2.5821
440.965	1.6179
441.173	1.34959
441.38	0.97794
441.587	1.42944
441.795	0.99766
442.002	1.397
442.209	1.42072
442.416	1.69634
442.624	1.58277
442.831	1.52089
443.038	1.0342
443.245	0.77263
443.452	1.10378
443.66	1.75382
443.867	0.91775
444.074	1.17461
444.281	0.92955
444.488	1.23114
444.695	1.14706
444.902	1.0718
445.109	1.53528
445.316	1.08567
445.523	0.90742
445.73	0.84505
445.937	1.37312
446.144	1.60658
446.351	1.45251
446.558	0.93022
446.765	1.86971
446.972	1.97749
447.179	1.23707
447.386	2.21675
447.593	1.18328
447.8	1.99296
448.007	1.14051
448.214	1.33017
448.42	0.99468
448.627	1.78292
448.834	1.22456
449.041	1.21327
449.248	1.21487
449.454	1.77539
449.661	2.32311
449.868	1.35191
450.075	1.1773
450.281	0.39889
450.488	0.83367
450.695	1.0438
450.901	1.06052
451.108	1.26512
451.315	1.89752
451.521	1.3464
451.728	1.96446
451.935	1.10298
452.141	1.3272
452.348	1.45582
452.554	1.28856
452.761	1.14495
452.967	2.27133
453.174	1.48818
453.38	1.54753
453.587	0.81522
453.793	1.43975
454	2.10954
454.206	2.6186
454.413	2.14264
454.619	1.62257
454.825	1.14186
455.032	1.87166
455.238	1.99209
455.445	0.87901
455.651	1.62711
455.857	0.60197
456.064	1.27744
456.27	1.24079
456.476	1.46952
456.682	0.86628
456.889	1.80822
457.095	1.79781
457.301	2.97228
457.507	1.56136
457.714	1.54987
457.92	1.45047
458.126	1.10523
458.332	1.25936
458.538	1.07536
458.744	1.08666
458.951	1.11548
459.157	2.46383
459.363	1.4046
459.569	1.27403
459.775	1.96015
459.981	0.99371
460.187	1.28052
460.393	1.76767
460.599	2.31408
460.805	1.53246
461.011	1.41134
461.217	1.94971
461.423	2.005
461.629	1.3259
461.835	1.87529
462.041	1.38721
462.247	2.42394
462.453	1.40754
462.658	1.67979
462.864	1.92572
463.07	1.76791
463.276	1.73254
463.482	1.78345
463.688	2.21501
463.893	1.48368
464.099	1.4354
464.305	2.47547
464.511	1.30618
464.716	1.65603
464.922	1.99454
465.128	1.36702
465.333	2.62831
465.539	1.98175
465.745	1.4404
465.95	1.7804
466.156	3.11542
466.362	2.37849
466.567	1.52121
466.773	1.43836
466.978	2.56313
467.184	1.19717
467.389	0.61774
467.595	1.92784
467.8	1.2085
468.006	2.47883
468.211	2.28549
468.417	1.1819
468.622	1.92827
468.828	2.28562
469.033	1.85511
469.239	3.22748
469.444	1.5694
469.649	2.33857
469.855	1.58955
470.06	1.75891
470.266	1.29989
470.471	2.03436
470.676	1.99194
470.881	0.99165
471.087	2.30665
471.292	3.26998
471.497	1.13589
471.703	1.60874
471.908	1.53283
472.113	1.86089
472.318	2.23534
472.523	1.31159
472.729	1.93994
472.934	2.19156
473.139	1.4574
473.344	2.06156
473.549	2.36035
473.754	1.48742
473.959	3.29491
474.164	1.41954
474.369	1.75629
474.575	2.38995
474.78	1.83449
474.985	1.53015
475.19	0.87163
475.395	1.37563
475.6	1.72801
475.804	2.55326
476.009	1.66745
476.214	1.88364
476.419	1.6146
476.624	0.87924
476.829	1.24304
477.034	2.00264
477.239	1.20812
477.444	2.05944
477.648	1.91918
477.853	1.97314
478.058	1.536
478.263	1.27866
478.468	1.07143
478.672	1.14202
478.877	2.23459
479.082	2.46611
479.287	1.78151
479.491	1.65725
479.696	1.0875
479.901	2.06789
480.105	2.01686
480.31	1.38708
480.515	1.47387
480.719	2.6458
480.924	1.24621
481.128	1.03287
481.333	1.61634
481.538	1.58834
481.742	1.26989
481.947	1.70287
482.151	1.85488
482.356	1.57578
482.56	2.08366
482.765	1.96514
482.969	2.43737
483.174	2.75586
483.378	3.3968
483.582	3.05515
483.787	3.79561
483.991	3.53935
484.196	3.78535
484.4	3.68124
484.604	4.41234
484.809	3.35793
485.013	3.4799
485.217	3.16449
485.422	2.79817
485.626	2.62498
485.83	2.44379
486.034	2.31636
486.239	2.38244
486.443	2.39063
486.647	2.0633
486.851	2.65975
487.055	2.98631
487.26	2.31632
487.464	2.60655
487.668	2.23887
487.872	2.15175
488.076	2.72941
488.28	2.44553
488.484	2.28688
488.688	2.30717
488.892	2.56001
489.096	2.59046
489.3	2.09902
489.504	2.16943
489.708	2.28735
489.912	2.27517
490.116	2.33377
490.32	1.58534
490.524	2.14472
490.728	2.15638
490.932	2.01017
491.136	1.77111
491.34	2.59103
491.544	2.57291
491.748	2.2763
491.951	2.43856
492.155	2.13169
492.359	2.34788
492.563	1.90143
492.767	1.81499
492.97	1.91154
493.174	1.62645
493.378	1.66221
493.582	1.18863
493.785	1.55441
493.989	1.6209
494.193	1.72736
494.396	1.50984
494.6	2.0365
494.804	1.70276
495.007	1.29884
495.211	1.48614
495.414	1.59679
495.618	1.7772
495.822	2.28046
496.025	1.65673
496.229	2.04736
496.432	1.16329
496.636	1.67324
496.839	1.39518
497.043	2.38472
497.246	1.70488
497.45	1.36673
497.653	1.46509
497.856	1.66014
498.06	0.9493
498.263	1.52927
498.467	1.23955
498.67	2.04542
498.873	1.78431
499.077	1.50056
499.28	1.44171
499.483	1.82674
499.686	1.86679
499.89	1.95548
500.093	2.08983
500.296	1.38548
500.499	2.41686
500.703	1.7973
500.906	1.89321
501.109	2.70343
501.312	1.84046
501.515	1.67293
501.719	1.84988
501.922	2.51254
502.125	1.83854
502.328	1.75419
502.531	1.19982
502.734	1.77848
502.937	0.88816
503.14	1.91069
503.343	1.234
503.546	1.49948
503.749	1.3593
503.952	2.07069
504.155	1.29074
504.358	1.98738
504.561	1.66116
504.764	1.11426
504.967	1.56851
505.17	1.70536
505.373	2.40766
505.576	1.90112
505.778	2.02194
505.981	1.43484
506.184	2.31228
506.387	1.05908
506.59	2.71875
506.793	2.28244
506.995	2.0016
507.198	0.84326
507.401	1.8328
507.604	1.94879
507.806	1.22184
508.009	1.32247
508.212	1.98181
508.414	1.34696
508.617	1.25914
508.82	1.43865
509.022	2.18887
509.225	1.70348
509.427	0.87137
509.63	2.25127
509.833	1.66747
510.035	1.45871
510.238	0.88615
510.44	2.25571
510.643	0.73254
510.845	2.70482
511.048	1.86129
511.25	1.40248
511.453	1.56848
511.655	1.79915
511.858	1.42123
512.06	1.94097
512.262	1.70414
512.465	1.93917
512.667	1.19117
512.869	1.1659
513.072	1.8065
513.274	2.02714
513.476	1.78869
513.679	2.12739
513.881	1.16431
514.083	2.56575
514.286	1.32288
514.488	1.50545
514.69	1.28856
514.892	1.08873
515.094	1.81106
515.297	1.53513
515.499	1.8256
515.701	1.3246
515.903	2.52496
516.105	2.5324
516.307	2.0911
516.509	0.80212
516.711	1.09814
516.913	1.77462
517.116	1.52822
517.318	1.41495
517.52	2.07926
517.722	1.82142
517.924	0.90515
518.126	1.60354
518.328	1.13184
518.529	1.77664
518.731	2.56532
518.933	1.19128
519.135	1.43583
519.337	2.21842
519.539	1.63054
519.741	0.71877
519.943	1.35667
520.145	1.46495
520.346	1.76443
520.548	1.35653
520.75	1.67378
520.952	1.38117
521.153	1.67639
521.355	1.88738
521.557	1.20034
521.759	1.89403
521.96	1.68378
522.162	1.22274
522.364	2.18072
522.565	1.45958
522.767	2.02313
522.969	2.31895
523.17	1.99372
523.372	2.02388
523.573	1.18825
523.775	1.48987
523.977	1.27851
524.178	2.6739
524.38	1.33077
524.581	1.93388
524.783	1.41396
524.984	1.78762
525.186	1.49504
525.387	1.83469
525.589	1.51232
525.79	1.39361
525.991	1.09839
526.193	1.72302
526.394	0.88592
526.596	1.75851
526.797	1.59852
526.998	1.36187
527.2	0.96036
527.401	1.94904
527.602	1.77065
527.803	2.54263
528.005	2.20662
528.206	2.48492
528.407	2.67849
528.608	2.28444
528.81	2.45119
529.011	2.02576
529.212	2.89582
529.413	2.45396
529.614	2.26994
529.815	2.50791
530.017	2.42205
530.218	2.11878
530.419	1.6546
530.62	1.95858
530.821	1.92392
531.022	1.15423
531.223	1.92337
531.424	2.08086
531.625	1.81717
531.826	1.69308
532.027	1.65931
532.228	2.3261
532.429	1.78988
532.63	1.65913
532.831	1.84775
533.032	1.94863
533.233	2.18806
533.433	2.07587
533.634	2.21235
533.835	1.82109
534.036	1.51254
534.237	1.79893
534.438	1.5063
534.638	1.30433
534.839	1.31128
535.04	1.81374
535.241	1.35012
535.441	2.11262
535.642	1.79166
535.843	1.14062
536.043	1.0646
536.244	1.3555
536.445	1.3538
536.645	2.01686
536.846	1.54871
537.047	2.29562
537.247	1.23227
537.448	1.43463
537.648	1.47433
537.849	1.58737
538.049	1.47796
538.25	1.90435
538.451	1.75646
538.651	1.26325
538.851	1.9506
539.052	2.27822
539.252	2.01222
539.453	1.76149
539.653	1.57451
539.854	1.61262
540.054	1.43331
540.254	2.20259
540.455	2.1856
540.655	1.57774
540.855	1.93366
541.056	2.27
541.256	1.95018
541.456	2.5267
541.657	1.90051
541.857	2.78069
542.057	1.59902
542.257	1.63444
542.458	2.30261
542.658	2.73938
542.858	1.46959
543.058	2.38408
543.258	2.0069
543.458	1.28699
543.659	1.14897
543.859	1.96399
544.059	1.84426
544.259	1.61454
544.459	2.12134
544.659	1.4039
544.859	1.86564
545.059	1.41181
545.259	1.94003
545.459	1.81879
545.659	2.03798
545.859	1.76844
546.059	1.87074
546.259	1.31843
546.459	0.89755
546.659	1.19978
546.859	1.88067
547.059	1.8052
547.258	1.87249
547.458	1.85603
547.658	1.14731
547.858	1.3623
548.058	1.8739
548.258	1.71726
548.457	1.42913
548.657	3.2793
548.857	1.73758
549.057	2.51702
549.256	2.20159
549.456	1.83875
549.656	1.06775
549.855	3.41122
550.055	1.87078
550.255	2.96949
550.454	2.36341
550.654	2.72423
550.853	3.07221
551.053	2.64265
551.253	2.31775
551.452	2.58179
551.652	1.31576
551.851	1.02905
552.051	1.78499
552.25	1.74326
552.45	1.58142
552.649	1.70049
552.849	1.47298
553.048	2.13837
553.248	2.30828
553.447	1.40881
553.646	2.4331
553.846	3.55932
554.045	2.9279
554.244	1.44257
554.444	2.91148
554.643	1.54136
554.842	3.11125
555.042	3.46471
555.241	1.93029
555.44	1.68602
555.64	2.27124
555.839	2.96044
556.038	2.51132
556.237	1.89658
556.436	2.25064
556.636	2.43563
556.835	1.69882
557.034	3.14118
557.233	2.20156
557.432	1.48213
557.631	2.81684
557.83	2.21795
558.029	1.93439
558.228	2.13562
558.427	1.69571
558.626	2.61322
558.825	1.70499
559.024	2.34587
559.223	3.51769
559.422	2.43873
559.621	2.61071
559.82	0.99025
560.019	2.28236
560.218	1.89903
560.417	0.52738
560.616	2.05099
560.815	4.34374
561.014	1.42223
561.212	2.93837
561.411	2.35518
561.61	1.30005
561.809	2.07552
562.008	3.61325
562.206	2.18896
562.405	2.45381
562.604	2.25347
562.803	2.38025
563.001	2.32716
563.2	1.36832
563.399	2.73378
563.597	1.63064
563.796	2.43366
563.995	1.31545
564.193	2.75166
564.392	1.93129
564.59	3.69362
564.789	1.01062
564.988	2.06109
565.186	2.28894
565.385	1.98913
565.583	1.80023
565.782	2.03985
565.98	1.79547
566.179	1.93206
566.377	1.27222
566.575	1.33899
566.774	2.76459
566.972	2.67108
567.171	3.22745
567.369	3.01606
567.567	2.10324
567.766	2.38755
567.964	0.83614
568.162	2.69013
568.361	3.05871
568.559	2.13677
568.757	2.3665
568.956	2.37896
569.154	2.15867
569.352	2.80121
569.55	2.08799
569.748	2.28504
569.947	1.63025
570.145	1.73998
570.343	1.40427
570.541	3.3242
570.739	1.23142
570.937	2.22622
571.135	2.29417
571.333	3.62284
571.532	3.33707
571.73	2.24916
571.928	2.62745
572.126	2.53033
572.324	1.77801
572.522	2.76984
572.72	3.65433
572.918	2.03947
573.116	2.30181
573.313	1.99699
573.511	1.87974
573.709	2.01101
573.907	2.46088
574.105	1.84428
574.303	1.05449
574.501	1.13891
574.699	2.22914
574.896	2.16874
575.094	2.56687
575.292	1.31345
575.49	2.64266
575.688	2.12788
575.885	3.0009
576.083	3.67367
576.281	2.44456
576.478	1.74672
576.676	2.66676
576.874	1.47672
577.071	2.25022
577.269	3.80554
577.467	2.05163
577.664	2.55122
577.862	2.77716
578.059	1.95128
578.257	2.91153
578.455	2.37377
578.652	2.34998
578.85	1.10606
579.047	2.67099
579.245	2.3444
579.442	2.72273
579.64	2.53555
579.837	1.24427
580.034	4.30706
580.232	2.3583
580.429	1.93549
580.627	3.12941
580.824	3.63118
581.021	3.12748
581.219	2.34052
581.416	2.22548
581.613	3.77499
581.811	3.46695
582.008	1.97958
582.205	3.36023
582.402	2.96056
582.6	3.92915
582.797	2.91323
582.994	3.17539
583.191	3.57928
583.388	2.95274
583.586	3.37676
583.783	3.93857
583.98	2.13217
584.177	2.91977
584.374	0.6269
584.571	2.5484
584.768	2.82821
584.965	2.51396
585.162	3.48286
585.359	4.1333
585.556	2.85496
585.753	3.23263
585.95	1.80072
586.147	2.18273
586.344	3.22859
586.541	2.71712
586.738	1.96079
586.935	2.95828
587.132	2.39838
587.329	3.90441
587.526	2.9227
587.722	7.01664
587.919	1.62048
588.116	2.96701
588.313	3.88345
588.51	4.45204
588.706	2.67285
588.903	3.34142
589.1	3.73075
589.297	5.4839
589.493	2.60619
589.69	3.48399
589.887	2.27769
590.083	1.7967
590.28	2.22487
590.477	3.78819
590.673	3.09858
590.87	3.88102
591.067	2.30162
591.263	3.27842
591.46	3.32581
591.656	2.77659
591.853	4.38575
592.049	2.29986
592.246	2.41741
592.442	3.893
592.639	3.97855
592.835	1.93417
593.032	3.19737
593.228	1.71361
593.425	1.8414
593.621	1.7418
593.817	3.07076
594.014	2.25058
594.21	3.11712
594.406	3.94133
594.603	2.99316
594.799	2.41453
594.995	0.94393
595.192	3.61913
595.388	2.32496
595.584	2.2553
595.78	1.55158
595.977	5.11549
596.173	4.07021
596.369	2.39427
596.565	1.72059
596.761	1.45921
596.957	3.43896
597.154	1.77211
597.35	2.08715
597.546	1.86229
597.742	2.65494
597.938	2.69344
598.134	1.80167
598.33	2.65291
598.526	3.81734
598.722	3.25233
598.918	4.23057
599.114	3.59262
599.31	1.9108
599.506	3.14173
599.702	2.3846
599.898	3.28578
600.094	3.99416
600.29	3.75453
600.485	3.64603
600.681	2.72891
600.877	4.54284
601.073	3.1873
601.269	5.23388
601.465	4.50358
601.66	2.30086
601.856	1.59594
602.052	5.16953
602.248	2.61971
602.443	1.07554
602.639	1.74424
602.835	2.34547
603.03	2.18606
603.226	3.53513
603.422	2.0015
603.617	2.54344
603.813	2.28514
604.009	1.92478
604.204	3.52952
604.4	1.26398
604.595	3.23578
604.791	1.71758
604.986	2.54303
605.182	1.65178
605.377	2.0584
605.573	2.2555
605.768	2.60196
605.964	2.90475
606.159	3.30226
606.355	3.73539
606.55	2.59114
606.746	3.64056
606.941	3.01003
607.136	4.59688
607.332	5.51871
607.527	2.03793
607.722	3.29381
607.918	2.85793
608.113	2.04372
608.308	3.65426
608.503	3.48997
608.699	3.23903
608.894	3.2595
609.089	2.10496
609.284	3.09662
609.479	2.32913
609.675	3.17253
609.87	2.52768
610.065	3.1187
610.26	3.54212
610.455	3.47179
610.65	2.80046
610.845	3.27338
611.04	3.691
611.235	2.72289
611.43	3.0032
611.625	2.12246
611.82	4.41042
612.015	2.62681
612.21	4.97233
612.405	2.1105
612.6	5.39569
612.795	5.18497
612.99	4.47301
613.185	2.27113
613.38	2.6387
613.575	3.88544
613.77	6.41683
613.965	2.06926
614.159	2.69711
614.354	4.85477
614.549	4.80402
614.744	4.09815
614.938	2.44655
615.133	2.25585
615.328	5.05506
615.523	5.06274
615.717	6.5777
615.912	3.25356
616.107	3.76971
616.301	3.14082
616.496	2.81125
616.691	5.52022
616.885	4.44098
617.08	6.37825
617.274	4.8184
617.469	6.0323
617.664	4.58314
617.858	3.1544
618.053	3.81388
618.247	3.41361
618.442	1.29596
618.636	5.19595
618.831	3.1467
619.025	3.17542
619.219	7.05032
619.414	0.45764
619.608	3.59855
619.803	2.57826
619.997	6.19899
620.191	4.96821
620.386	4.29195
620.58	3.88605
620.774	1.78227
620.969	1.80727
621.163	3.9183
621.357	2.29056
621.551	3.54811
621.746	3.8283
621.94	3.63338
622.134	7.92175
622.328	6.48006
622.522	2.33304
622.716	5.06701
622.911	4.77254
623.105	4.46549
623.299	4.02664
623.493	7.55961
623.687	3.08419
623.881	3.21527
624.075	4.86089
624.269	5.08058
624.463	1.78391
624.657	1.69083
624.851	4.45796
625.045	4.6607
625.239	4.75609
625.433	2.67264
625.627	5.7946
625.821	3.04709
626.015	2.63553
626.209	3.44609
626.403	1.54998
626.596	3.90528
626.79	4.24815
626.984	2.17523
627.178	4.12318
627.372	3.84654
627.565	4.25486
627.759	1.91609
627.953	2.22943
628.147	3.97149
628.34	4.47022
628.534	6.02047
628.728	3.28608
628.921	4.81829
629.115	4.82336
629.309	4.70748
629.502	5.25314
629.696	4.16273
629.89	3.88555
630.083	4.17371
630.277	4.07835
630.47	6.23363
630.664	3.57742
630.857	2.28675
631.051	4.92147
631.244	5.5369
631.438	5.33405
631.631	3.35442
631.825	5.51752
632.018	4.77457
632.212	6.40473
632.405	5.59863
632.598	3.11609
632.792	4.34477
632.985	1.24744
633.178	3.33782
633.372	4.08802
633.565	3.75799
633.758	5.46077
633.952	2.92933
634.145	2.86791
634.338	3.81857
634.531	3.55414
634.724	2.7304
634.918	4.19859
635.111	3.55478
635.304	3.59192
635.497	6.99766
635.69	4.58607
635.883	5.45059
636.077	2.71243
636.27	4.67732
636.463	4.70978
636.656	4.49622
636.849	3.7866
637.042	4.63428
637.235	7.38498
637.428	5.28023
637.621	5.05336
637.814	6.46262
638.007	6.49864
638.2	6.80553
638.393	7.05697
638.586	2.72684
638.778	3.89922
638.971	4.56927
639.164	6.83912
639.357	5.29427
639.55	6.56916
639.743	5.45726
639.935	5.4336
640.128	8.34283
640.321	6.00795
640.514	5.06733
640.707	8.49471
640.899	5.9888
641.092	2.75622
641.285	20.64098
641.477	1.65095
641.67	8.30056
641.863	6.53108
642.055	5.45537
642.248	5.16998
642.441	4.78799
642.633	5.70935
642.826	6.42456
643.018	7.34601
643.211	7.79378
643.403	8.38359
643.596	8.60353
643.788	7.59966
643.981	4.3298
644.173	6.18482
644.366	4.27884
644.558	2.49432
644.751	6.66861
644.943	3.49965
645.135	8.10831
645.328	7.88865
645.52	6.55761
645.712	6.89604
645.905	10.54862
646.097	3.73928
646.289	5.87688
646.482	8.70326
646.674	3.97856
646.866	7.13339
647.058	6.09428
647.251	4.0654
647.443	4.51356
647.635	4.86451
647.827	4.05289
648.019	3.46871
648.211	5.25605
648.404	6.05931
648.596	8.23423
648.788	6.21715
648.98	5.75056
649.172	6.3299
649.364	6.40075
649.556	2.88116
649.748	9.43924
649.94	4.4264
650.132	6.53772
650.324	4.3748
650.516	4.25987
650.708	7.10545
650.9	3.24063
651.092	2.86523
651.284	3.03179
651.476	3.66843
651.667	6.51256
651.859	7.8257
652.051	5.30512
652.243	6.02598
652.435	4.86597
652.627	6.18752
652.818	6.30139
653.01	3.03238
653.202	4.50106
653.394	5.32066
653.585	6.13355
653.777	13.29784
653.969	8.32842
654.16	7.68039
654.352	4.19004
654.544	5.87963
654.735	7.9177
654.927	5.56894
655.118	8.49868
655.31	7.44987
655.502	7.77787
655.693	5.33036
655.885	6.65704
656.076	8.4498
656.268	6.5436
656.459	8.20961
656.651	8.49176
656.842	5.31916
657.034	4.62957
657.225	7.36601
657.416	8.5898
657.608	8.15748
657.799	5.70113
657.99	7.33434
658.182	4.10533
658.373	4.48523
658.564	7.83645
658.756	5.9782
658.947	5.21031
659.138	3.84034
659.33	4.39116
659.521	4.12543
659.712	5.07591
659.903	5.1043
660.094	4.52715
660.286	2.96949
660.477	8.53685
660.668	6.48755
660.859	5.57782
661.05	3.29717
661.241	6.64597
661.432	6.33055
661.623	5.46234
661.814	4.9721
662.006	3.43377
662.197	6.06481
662.388	7.9222
662.579	6.70994
662.77	8.59271
662.96	11.41401
663.151	8.41969
663.342	2.93984
663.533	7.31387
663.724	5.83702
663.915	9.97939
664.106	6.49864
664.297	10.01038
664.488	7.69311
664.678	5.17839
664.869	7.99008
665.06	8.2559
665.251	6.82722
665.442	8.04347
665.632	4.5454
665.823	10.67037
666.014	1.54727
666.204	7.82523
666.395	9.29918
666.586	11.62083
666.776	8.22114
666.967	10.35218
667.158	6.96541
667.348	10.02839
667.539	4.59574
667.729	8.68834
667.92	5.63919
668.111	8.9885
668.301	8.60865
668.492	6.04632
668.682	6.9026
668.873	6.72084
669.063	4.5857
669.253	6.93207
669.444	10.09029
669.634	6.65643
669.825	10.44132
670.015	9.01899
670.206	5.48676
670.396	11.29329
670.586	6.47817
670.777	7.96908
670.967	2.9003
671.157	6.69237
671.347	5.8106
671.538	10.38572
671.728	8.95559
671.918	11.13614
672.108	9.08402
672.299	7.10557
672.489	7.85594
672.679	5.92622
672.869	8.52117
673.059	11.85294
673.249	8.17662
673.44	5.25972
673.63	6.60833
673.82	9.49657
674.01	4.93225
674.2	8.44118
674.39	13.38354
674.58	8.6325
674.77	7.87997
674.96	7.20412
675.15	16.58324
675.34	9.72106
675.53	7.71778
675.72	6.60749
675.91	4.18366
676.099	11.73257
676.289	13.25673
676.479	9.89193
676.669	6.47236
676.859	8.6825
677.049	5.8338
677.238	7.95982
677.428	11.33777
677.618	8.61291
677.808	11.94029
677.997	8.71926
678.187	5.34409
678.377	7.69456
678.567	6.09467
678.756	6.73384
678.946	7.39646
679.136	4.85117
679.325	5.71666
679.515	5.66575
679.704	4.61791
679.894	9.07698
680.084	7.95489
680.273	10.07345
680.463	4.84064
680.652	5.21687
680.842	7.18801
681.031	8.87933
681.221	5.13186
681.41	7.82501
681.6	6.67923
681.789	8.55344
681.978	9.95286
682.168	8.3669
682.357	8.20123
682.547	8.6545
682.736	7.87429
682.925	10.89629
683.115	10.62326
683.304	9.16535
683.493	8.21511
683.682	9.12202
683.872	9.20238
684.061	10.8592
684.25	9.86087
684.439	14.16447
684.629	10.27203
684.818	16.55208
685.007	8.4661
685.196	7.4904
685.385	13.24001
685.574	9.59229
685.763	9.08621
685.952	8.91152
686.142	5.58127
686.331	11.95869
686.52	4.94346
686.709	14.27059
686.898	13.9088
687.087	10.37616
687.276	13.16932
687.465	12.16853
687.654	7.69298
687.842	12.75638
688.031	5.42224
688.22	12.46384
688.409	9.50251
688.598	9.66764
688.787	15.41672
688.976	9.06993
689.165	14.42506
689.353	8.34929
689.542	11.01375
689.731	12.49868
689.92	15.44695
690.108	11.48385
690.297	8.373
690.486	10.2501
690.675	10.93059
690.863	14.20817
691.052	13.7162
691.241	10.68502
691.429	10.41639
691.618	13.18387
691.806	6.77523
691.995	9.19175
692.184	9.47809
692.372	8.94933
692.561	9.53259
692.749	10.46788
692.938	19.16004
693.126	11.62429
693.315	9.72372
693.503	11.89918
693.692	12.60874
693.88	12.63066
694.068	16.04455
694.257	10.7875
694.445	12.01587
694.634	5.52007
694.822	13.42546
695.01	13.86688
695.199	16.6315
695.387	15.49837
695.575	14.26205
695.763	10.4841
695.952	9.7998
696.14	6.03295
696.328	8.68526
696.516	11.09708
696.705	11.23887
696.893	11.10644
697.081	5.97669
697.269	13.01982
697.457	6.98803
697.645	6.03589
697.833	12.09045
698.021	7.41264
698.21	7.82637
698.398	8.53441
698.586	5.84622
698.774	5.28768
698.962	8.66953
699.15	5.99429
699.338	4.73828
699.526	9.98997
699.714	6.84846
699.901	6.82284
700.089	10.57045
700.277	7.09764
700.465	8.3919
700.653	11.20397
700.841	10.80509
701.029	7.33596
701.217	13.65897
701.404	10.07589
701.592	13.69435
701.78	16.97678
701.968	9.56244
702.155	9.43271
702.343	7.19785
702.531	14.78475
702.718	12.28435
702.906	9.29446
703.094	9.35866
703.281	14.69291
703.469	9.71659
703.657	14.69455
703.844	22.0343
704.032	17.7676
704.219	9.93942
704.407	12.72426
704.595	16.56919
704.782	12.6502
704.97	11.41066
705.157	10.38076
705.345	18.37115
705.532	23.86448
705.719	14.91894
705.907	18.04295
706.094	14.72726
706.282	21.36089
706.469	14.56936
706.656	15.59994
706.844	14.6535
707.031	18.86434
707.218	16.96218
707.406	21.14584
707.593	18.22534
707.78	18.12562
707.968	16.95562
708.155	14.10244
708.342	18.81618
708.529	19.43871
708.716	17.64014
708.904	21.65652
709.091	18.31121
709.278	13.60504
709.465	22.64556
709.652	22.26665
709.839	20.94486
710.026	16.9724
710.213	10.39013
710.4	16.32182
710.587	18.21512
710.774	18.74792
710.961	19.83307
711.148	16.19802
711.335	19.21715
711.522	15.84197
711.709	17.85848
711.896	23.35591
712.083	20.29982
712.27	12.98452
712.457	17.5031
712.644	11.48119
712.831	23.69727
713.017	17.53171
713.204	18.80658
713.391	13.35412
713.578	19.74376
713.765	21.54139
713.951	17.47558
714.138	26.9324
714.325	16.86373
714.512	14.55069
714.698	12.09946
714.885	19.79505
715.072	15.86499
715.258	14.41201
715.445	11.96823
715.631	18.98029
715.818	5.3023
716.005	12.54474
716.191	16.57656
716.378	12.76385
716.564	16.88567
716.751	10.41679
716.937	12.44368
717.124	18.18256
717.31	10.7923
717.497	22.02874
717.683	11.37838
717.869	22.28503
718.056	12.26007
718.242	16.69855
718.429	14.28534
718.615	10.39048
718.801	14.2393
718.988	19.18506
719.174	16.58606
719.36	13.06276
719.547	19.04842
719.733	16.24619
719.919	15.39175
720.105	16.67722
720.291	14.77542
720.478	16.48773
720.664	14.0974
720.85	12.53202
721.036	27.18395
721.222	22.51342
721.408	14.62275
721.595	22.9726
721.781	21.73922
721.967	20.29558
722.153	22.03027
722.339	18.2508
722.525	17.21935
722.711	11.38885
722.897	10.25619
723.083	13.58023
723.269	20.60154
723.455	28.8345
723.641	33.91282
723.827	16.08063
724.012	18.1536
724.198	15.72698
724.384	21.26647
724.57	16.50285
724.756	9.71404
724.942	8.46406
725.127	21.51475
725.313	22.21437
725.499	22.18782
725.685	26.08188
725.87	18.2484
726.056	11.4634
726.242	21.49229
726.428	9.61475
726.613	20.54981
726.799	14.66528
726.985	11.49368
727.17	9.26211
727.356	26.12447
727.541	12.77191
727.727	15.61701
727.913	19.96475
728.098	14.79401
728.284	19.00973
728.469	10.81151
728.655	12.62721
728.84	21.04117
729.026	19.51939
729.211	20.25189
729.397	17.80464
729.582	19.95889
729.767	15.13715
729.953	17.88739
730.138	22.58823
730.323	6.70168
730.509	11.21337
730.694	24.34704
730.879	19.13589
731.065	18.13411
731.25	28.2347
731.435	19.48676
731.621	9.8442
731.806	14.4431
731.991	17.588
732.176	10.58392
732.361	24.25787
732.547	18.21493
732.732	9.76222
732.917	27.59198
733.102	11.39448
733.287	13.97919
733.472	16.29485
733.657	16.5795
733.842	10.77155
734.027	13.64606
734.212	15.2787
734.397	12.25716
734.582	16.93663
734.767	20.92868
734.952	23.74045
735.137	5.67508
735.322	23.37159
735.507	18.46788
735.692	18.27375
735.877	27.55692
736.062	26.73692
736.247	17.84223
736.431	16.75637
736.616	22.1634
736.801	18.9798
736.986	17.99419
737.171	12.8837
737.355	11.74237
737.54	24.1882
737.725	18.13057
737.909	32.43288
738.094	15.07442
738.279	20.66336
738.463	17.15912
738.648	21.06724
738.833	19.2015
739.017	29.32234
739.202	16.97692
739.386	16.85948
739.571	13.72144
739.756	22.67432
739.94	17.48105
740.125	21.0979
740.309	14.58283
740.494	21.84226
740.678	19.04077
740.863	20.50663
741.047	18.90268
741.231	25.59972
741.416	14.62263
741.6	26.77812
741.785	14.32624
741.969	22.86353
742.153	26.38649
742.338	7.15949
742.522	17.73745
742.706	22.3629
742.89	12.05496
743.075	18.33625
743.259	25.48274
743.443	24.08203
743.627	25.10927
743.812	30.53168
743.996	10.36395
744.18	17.42703
744.364	15.80449
744.548	33.16104
744.732	18.29225
744.916	23.48767
745.1	21.07807
745.285	16.96503
745.469	22.32078
745.653	28.16248
745.837	12.01634
746.021	32.30854
746.205	25.62069
746.389	19.7936
746.573	17.61982
746.757	27.01461
746.94	15.09982
747.124	26.9257
747.308	12.98064
747.492	26.5009
747.676	14.5162
747.86	34.67814
748.044	17.06346
748.227	10.82127
748.411	44.11997
748.595	20.22049
748.779	15.60105
748.963	22.6466
749.146	19.63737
749.33	15.54837
749.514	14.35404
749.697	27.9629
749.881	14.74819
750.065	13.52223
750.248	20.19243
750.432	34.19214
750.616	19.24432
750.799	12.90974
750.983	34.80512
751.166	34.14717
751.35	11.26159
751.533	23.78579
751.717	29.72171
751.9	28.90194
752.084	18.11212
752.267	14.34219
752.451	14.58167
752.634	20.55895
752.818	23.21682
753.001	25.41256
753.184	26.35348
753.368	21.89378
753.551	0.72075
753.734	15.54232
753.918	35.63829
754.101	16.40858
754.284	24.93324
754.467	16.8423
754.651	15.45365
754.834	15.52701
755.017	27.1107
755.2	26.88545
755.384	12.60048
755.567	24.2418
755.75	25.65786
755.933	17.84342
756.116	25.39004
756.299	16.55341
756.482	14.06587
756.665	23.91331
756.848	20.56948
757.032	22.46765
757.215	10.11465
757.398	14.07681
757.581	14.36871
757.764	38.52898
757.947	20.37025
758.129	25.72726
758.312	4.24023
758.495	18.97973
758.678	18.85404
758.861	18.11454
759.044	33.3178
759.227	14.49269
759.41	14.64649
759.592	25.55513
759.775	19.07107
759.958	25.79297
760.141	12.27951
760.324	35.75412
760.506	29.46035
760.689	25.7807
760.872	35.73051
761.054	22.70177
761.237	19.20622
761.42	21.33102
761.602	25.40033
761.785	23.27609
761.968	28.63409
762.15	32.4546
762.333	19.35922
762.515	23.78527
762.698	17.21952
762.88	26.04831
763.063	23.41362
763.245	27.73276
763.428	14.97163
763.61	16.38054
763.793	12.48408
763.975	21.76122
764.158	18.20785
764.34	15.97938
764.522	13.64562
764.705	16.95863
764.887	29.44861
765.069	10.77065
765.252	23.93122
765.434	25.2007
765.616	20.36741
765.799	14.36572
765.981	23.60793
766.163	14.07099
766.345	28.0261
766.528	16.06971
766.71	6.46964
766.892	21.34366
767.074	29.65715
767.256	18.04881
767.438	31.54422
767.62	21.68249
767.802	37.88845
767.985	24.9145
768.167	34.02059
768.349	16.82294
768.531	25.69705
768.713	24.34852
768.895	26.82043
769.077	23.68931
769.259	40.48519
769.441	57.87787
769.623	26.68256
769.804	32.58329
769.986	30.95455
770.168	37.53363
770.35	48.5818
770.532	35.74478
770.714	37.94927
770.896	38.72578
771.077	14.23106
771.259	41.35331
771.441	35.82504
771.623	43.76218
771.804	55.91095
771.986	13.69588
772.168	25.90913
772.35	40.27906
772.531	57.80444
772.713	33.90057
772.894	45.09886
773.076	34.0928
773.258	27.5352
773.439	49.00601
773.621	52.79065
773.802	19.6491
773.984	27.32914
774.166	36.08932
774.347	49.69747
774.529	43.71251
774.71	13.04687
774.891	32.34953
775.073	28.64399
775.254	47.08156
775.436	26.36017
775.617	59.07989
775.799	27.75999
775.98	47.39566
776.161	52.45883
776.343	55.57895
776.524	31.12595
776.705	31.36216
776.886	15.03225
777.068	39.16353
777.249	83.82193
777.43	57.78378
777.611	19.64559
777.793	28.42523
777.974	54.63382
778.155	27.77608
778.336	23.85007
778.517	62.28764
778.698	25.22994
778.879	12.37252
779.061	4.41971
779.242	39.63126
779.423	38.52161
779.604	26.23459
779.785	30.15005
779.966	35.59037
780.147	46.60621
780.328	47.3146
780.509	65.87017
780.69	45.50403
780.871	27.32136
781.051	17.44371
781.232	33.68763
781.413	34.63204
781.594	29.47278
781.775	26.49346
781.956	24.73757
782.137	12.66147
782.317	26.42827
782.498	34.01719
782.679	32.39709
782.86	34.36716
783.04	24.64569
783.221	35.91286
783.402	58.34598
783.583	34.08258
783.763	44.97311
783.944	28.18525
784.124	16.62774
784.305	56.19648
784.486	43.6851
784.666	33.0071
784.847	15.33327
785.027	76.25884
785.208	26.30666
785.388	22.06269
785.569	26.46621
785.749	29.72305
785.93	27.0503
786.11	16.27505
786.291	40.40635
786.471	36.63488
786.652	43.34876
786.832	30.92629
787.012	36.62909
787.193	19.37415
787.373	33.99037
787.553	28.07096
787.734	36.12446
787.914	28.26553
788.094	46.12571
788.275	37.27411
788.455	30.03613
788.635	20.07742
788.815	35.96331
788.995	21.42399
789.176	17.11041
789.356	23.87991
789.536	32.04033
789.716	39.01523
789.896	24.85662
790.076	27.06438
790.256	37.2372
790.436	9.3291
790.616	22.05265
790.796	35.42926
790.976	27.64594
791.156	25.12081
791.336	37.49515
791.516	36.86473
791.696	30.15537
791.876	16.97111
792.056	35.36689
792.236	45.69693
792.416	43.79056
792.596	39.02115
792.776	37.91212
792.956	43.18006
793.135	56.5746
793.315	19.80627
793.495	47.29208
793.675	43.05226
793.854	42.78543
794.034	45.61509
794.214	19.93558
794.394	42.48881
794.573	48.78518
794.753	34.11592
794.933	23.72587
795.112	35.34319
795.292	46.6474
795.472	55.72985
795.651	19.104
795.831	32.97619
796.01	29.99946
796.19	29.15814
796.369	32.06094
796.549	38.05963
796.728	31.09634
796.908	17.79592
797.087	20.09173
797.267	29.75396
797.446	20.22594
797.626	38.52935
797.805	37.90981
797.984	23.74125
798.164	41.7692
798.343	22.76611
798.522	35.8481
798.702	34.06792
798.881	19.3712
799.06	29.50763
799.239	12.26599
799.419	22.92586
799.598	55.03875
799.777	38.76786
799.956	46.13461
800.136	30.22617
800.315	21.83008
800.494	37.24237
800.673	45.94128
800.852	40.86576
801.031	47.07605
801.21	39.41853
801.389	27.52862
801.568	35.36392
801.747	58.16513
801.926	31.2041
802.105	50.59268
802.284	27.12265
802.463	51.83803
802.642	34.21269
802.821	35.24567
803	52.12597
803.179	44.59723
803.358	47.956
803.537	24.94095
803.716	31.58842
803.895	26.11928
804.073	29.97122
804.252	23.58903
804.431	38.41021
804.61	31.21507
804.789	42.5357
804.967	26.44162
805.146	26.11518
805.325	65.40258
805.503	37.59833
805.682	18.98186
805.861	78.85208
806.039	51.59972
806.218	25.90559
806.397	35.93721
806.575	31.81905
806.754	38.46782
806.932	22.01205
807.111	46.80089
807.289	44.86113
807.468	35.42356
807.646	47.12943
807.825	38.98107
808.003	35.39479
808.182	46.25247
808.36	33.56741
808.539	24.05831
808.717	55.02019
808.895	25.49149
809.074	37.2608
809.252	30.5319
809.43	42.36945
809.609	52.07823
809.787	59.45003
809.965	29.31792
810.144	33.13921
810.322	30.23187
810.5	40.19092
810.678	28.72319
810.856	63.94863
811.035	49.20272
811.213	43.33862
811.391	52.41599
811.569	37.54783
811.747	86.45117
811.925	47.67437
812.103	25.3764
812.281	32.62087
812.459	60.48709
812.637	58.87476
812.816	47.55426
812.994	66.1176
813.171	52.72025
813.349	42.58345
813.527	49.62157
813.705	55.47048
813.883	71.612
814.061	48.52507
814.239	61.77182
814.417	67.5342
814.595	43.86686
814.773	41.22506
814.95	38.82334
815.128	44.78117
815.306	37.49188
815.484	32.57038
815.662	23.91
815.839	20.23369
816.017	28.19998
816.195	51.73776
816.372	31.88958
816.55	48.03429
816.728	60.13848
816.905	35.41521
817.083	60.69087
817.261	38.21905
817.438	83.33829
817.616	63.05706
817.793	29.27868
817.971	47.689
818.148	46.68464
818.326	56.86943
818.503	40.68452
818.681	62.07846
818.858	33.88692
819.036	37.07031
819.213	40.177
819.391	29.31821
819.568	27.59275
819.745	23.53339
819.923	47.82655
820.1	32.91314
820.277	26.90108
820.455	32.5053
820.632	35.15399
820.809	38.79493
820.986	22.59502
821.164	17.22608
821.341	15.01327
821.518	26.87822
821.695	17.35055
821.872	14.6097
822.05	11.81497
822.227	8.46048
822.404	9.22462
822.581	11.77535
822.758	8.41389
822.935	8.48698
823.112	10.1027
823.289	7.31591
823.466	10.14477
823.643	9.32841
823.82	12.31865
823.997	9.69914
824.174	12.60496
824.351	19.21305
824.528	17.49259
824.705	14.97729
824.882	17.12989
825.059	24.52374
825.236	15.05368
825.412	16.85651
825.589	22.10033
825.766	35.11954
825.943	19.26236
826.12	23.97155
826.296	15.12204
826.473	21.51374
826.65	21.92886
826.827	27.40792
827.003	16.55193
827.18	19.34495
827.357	22.41838
827.533	18.18301
827.71	8.07368
827.887	14.73202
828.063	18.39261
828.24	14.59456
828.416	21.70522
828.593	16.70819
828.769	26.06959
828.946	27.20099
829.122	27.29813
829.299	27.41764
829.475	15.15916
829.652	25.31697
829.828	46.3461
830.005	27.73649
830.181	40.90251
830.357	27.87542
830.534	42.04992
830.71	28.68199
830.886	40.63389
831.063	38.25768
831.239	51.73588
831.415	22.76505
831.592	55.12746
831.768	30.09719
831.944	25.93592
832.12	60.51104
832.296	54.97771
832.473	45.44652
832.649	31.33841
832.825	47.82147
833.001	25.84897
833.177	39.96116
833.353	36.31512
833.529	18.91744
833.705	32.94475
833.881	19.01016
834.058	18.25384
834.234	21.19704
834.41	20.54664
834.586	14.90485
834.761	19.08492
834.937	22.70902
835.113	22.94086
835.289	18.36591
835.465	22.39141
835.641	19.9255
835.817	22.41468
835.993	41.3616
836.169	17.42519
836.344	31.78353
836.52	37.39796
836.696	33.45652
836.872	23.30425
837.048	84.16301
837.223	27.67815
837.399	62.05307
837.575	45.85602
837.75	43.30681
837.926	64.97653
838.102	98.67001
838.277	74.69307
838.453	107.0942
838.628	104.75329
838.804	33.18451
838.98	92.60716
839.155	43.6531
839.331	66.10165
839.506	44.96171
839.682	43.56726
839.857	65.95304
840.033	77.34891
840.208	31.93959
840.384	16.8616
840.559	36.33805
840.734	54.09365
840.91	73.70877
841.085	43.14285
841.26	42.33506
841.436	39.21687
841.611	35.26049
841.786	57.505
841.962	77.99981
842.137	48.34777
842.312	26.09895
842.487	41.3235
842.663	32.54349
842.838	41.96808
843.013	148.78914
843.188	66.12367
843.363	71.72314
843.538	121.58333
843.714	124.35475
843.889	123.03667
844.064	135.49997
844.239	107.44368
844.414	131.481
844.589	81.33355
844.764	155.45587
844.939	158.89511
845.114	167.68418
845.289	157.62091
845.464	219.58255
845.639	148.03814
845.814	61.12451
845.989	83.69497
846.163	106.89837
846.338	112.61967
846.513	158.71185
846.688	99.7987
846.863	103.07981
847.038	91.84705
847.212	107.92645
847.387	109.86964
847.562	112.88292
847.737	145.3726
847.911	50.51981
848.086	62.73727
848.261	232.86209
848.435	103.39664
848.61	150.99458
848.785	68.38483
848.959	152.95211
849.134	210.80768
849.308	223.75001
849.483	114.35501
849.658	179.55194
849.832	93.27042
850.007	81.76393
850.181	241.87635
850.356	83.86366
850.53	235.72738
850.705	68.19248
850.879	34.6211
851.053	103.82053
851.228	93.85202
851.402	129.96906
851.577	165.56584
851.751	179.43285
851.925	119.14346
852.099	48.77748
852.274	77.03578
852.448	105.27217
852.622	145.63247
852.797	110.0965
852.971	110.38104
853.145	114.99548
853.319	347.67385
853.493	173.76631
853.668	91.40362
853.842	219.2088
854.016	173.5574
854.19	204.87206
854.364	125.52451
854.538	131.23109
854.712	174.43443
854.886	106.59548
855.06	97.43168
855.234	34.84115
855.408	186.1808
855.582	161.55032
855.756	162.25762
855.93	207.70399
856.104	142.36857
856.278	158.78433
856.452	111.85655
856.626	156.98791
856.8	263.23576
856.973	143.46834
857.147	142.60749
857.321	137.02665
857.495	165.60576
857.669	116.9637
857.842	103.46028
858.016	170.39216
858.19	84.14279
858.364	286.92929
858.537	105.41841
858.711	128.04604
858.885	108.32585
859.058	91.2501
859.232	50.45437
859.405	58.10553
859.579	160.943
859.753	138.73095
859.926	84.59402
860.1	65.5908
860.273	123.73656
860.447	199.73184
860.62	104.45687
860.794	237.686
860.967	137.80496
861.141	175.69824
861.314	260.01527
861.487	152.90625
861.661	201.1587
861.834	203.19703
862.008	177.01689
862.181	125.14661
862.354	124.51113
862.528	152.23777
862.701	98.66671
862.874	64.95475
863.047	105.04552
863.221	100.21033
863.394	45.93859
863.567	201.56042
863.74	35.58046
863.913	159.32295
864.087	143.51885
864.26	176.34712
864.433	120.54356
864.606	215.70048
864.779	132.26486
864.952	56.17825
865.125	94.93843
865.298	114.92319
865.471	124.10032
865.644	255.54112
865.817	205.5503
865.99	169.06319
866.163	190.83539
866.336	104.31847
866.509	120.0982
866.682	103.93528
866.855	192.80618
867.028	72.40587
867.2	154.63019
867.373	46.78738
867.546	137.37501
867.719	262.64859
867.892	156.32341
868.064	77.89348
868.237	142.59331
868.41	120.9165
868.583	65.44851
868.755	74.45101
868.928	121.41374
869.101	267.08977
869.273	190.57223
869.446	146.40336
869.619	184.41816
869.791	122.10822
869.964	184.09991
870.136	176.82645
870.309	131.969
870.481	134.46918
870.654	61.77518
870.826	134.77104
870.999	105.7496
871.171	171.36206
871.344	101.62396
871.516	116.8265
871.689	86.52694
871.861	138.54286
872.033	88.18396
872.206	105.01937
872.378	175.83235
872.55	112.02146
872.723	65.43963
872.895	116.53438
873.067	176.25857
873.24	204.40874
873.412	100.58482
873.584	113.47203
873.756	102.10456
873.928	145.31243
874.101	139.94818
874.273	161.73265
874.445	48.37835
874.617	71.18005
874.789	130.86379
874.961	110.04431
875.133	156.05403
875.305	128.88637
875.477	82.14512
875.649	60.00357
875.821	81.23448
875.993	217.56123
876.165	82.11722
876.337	139.63735
876.509	113.81054
876.681	138.69644
876.853	133.48498
877.025	135.73364
877.197	92.91628
877.369	74.68844
877.541	173.28902
877.712	39.44087
877.884	78.17377
878.056	155.09727
878.228	80.63825
878.4	152.99105
878.571	79.99055
878.743	54.58897
878.915	135.22303
879.086	73.85575
879.258	98.12365
879.43	91.1158
879.601	76.97637
879.773	81.91337
879.945	16.47271
880.116	34.65888
880.288	19.63663
880.459	22.31934
880.631	14.88723
880.802	20.34267
880.974	18.6148
881.145	11.58429
881.317	16.84976
881.488	11.53333
881.66	13.01748
881.831	11.39015
882.002	17.86885
882.174	11.22761
882.345	16.49233
882.517	6.17794
882.688	19.10217
882.859	15.36997
883.03	28.22699
883.202	25.61831
883.373	21.32048
883.544	20.20191
883.715	41.6639
883.887	32.13745
884.058	25.66715
884.229	41.12901
884.4	43.14743
884.571	45.95107
884.742	39.16489
884.914	43.56092
885.085	61.36243
885.256	86.96879
885.427	69.77686
885.598	83.5631
885.769	91.60203
885.94	84.16035
886.111	51.21627
886.282	100.933
886.453	82.47283
886.624	51.59891
886.795	103.76503
886.966	85.09169
887.136	111.13603
887.307	70.28021
887.478	146.9336
887.649	130.2472
887.82	133.28428
887.991	97.24996
888.161	144.47139
888.332	138.5791
888.503	66.57051
888.674	186.59434
888.844	206.4097
889.015	157.65228
889.186	70.18371
889.356	188.60541
889.527	59.84191
889.698	341.78109
889.868	108.01929
890.039	137.33937
890.209	122.12762
890.38	163.18074
890.551	139.91329
890.721	204.35407
890.892	162.68866
891.062	112.01863
891.233	145.42003
891.403	113.24366
891.574	82.60929
891.744	111.47114
891.914	145.276
892.085	124.97315
892.255	32.94169
892.425	204.86221
892.596	158.77023
892.766	142.97385
892.936	204.94976
893.107	172.36378
893.277	89.14982
893.447	63.83255
893.618	45.23102
893.788	103.48498
893.958	50.18927
894.128	57.00197
894.298	63.91026
894.468	94.29128
894.639	38.65901
894.809	25.13882
894.979	44.37745
895.149	52.56459
895.319	40.49899
895.489	61.05604
895.659	76.96334
895.829	48.56139
895.999	50.89438
896.169	34.7131
896.339	42.47825
896.509	100.62654
896.679	115.69833
896.849	108.3968
897.019	164.70947
897.189	120.44741
897.358	102.65227
897.528	159.84221
897.698	52.03998
897.868	142.40779
898.038	258.58754
898.208	234.31281
898.377	72.28148
898.547	255.14898
898.717	403.22812
898.886	144.80477
899.056	240.90428
899.226	368.16889
899.395	210.93419
899.565	281.14975
899.735	175.12432
899.904	318.97852
900.074	270.3868
900.244	111.43908
900.413	478.81652
900.583	98.16182
900.752	166.28839
900.922	292.04884
901.091	24.04334
901.261	251.63239
901.43	236.99773
901.599	246.26298
901.769	544.37641
901.938	283.56216
902.108	253.6119
902.277	349.42077
902.446	88.46629
902.616	110.1575
902.785	156.45773
902.954	270.93762
903.124	180.45809
903.293	142.60076
903.462	72.27197
903.631	111.90568
903.801	80.96325
903.97	43.3372
904.139	72.70665
904.308	53.71324
904.477	38.81386
904.646	20.94504
904.816	39.21497
904.985	57.34478
905.154	91.15033
