Data from WindowProjectSample3_Transmission__9__00009.txt Node

Date: Sun May 04 09:48:53 EDT 2025
User: jessi
Spectrometer: SR400872
Trigger mode: 0
Integration Time (sec): 5.000070E-1
Scans to average: 10
Electric dark correction enabled: true
Nonlinearity correction enabled: true
Boxcar width: 0
XAxis mode: Wavelengths
Number of Pixels in Spectrum: 3648
>>>>>Begin Spectral Data<<<<<
184.909	-5968.89305
185.132	10966.54904
185.355	-8336.4481
185.578	-51741.17651
185.801	4879.25797
186.024	-132279.16215
186.247	-718.15065
186.47	1558.02965
186.693	947.78222
186.916	-471.63469
187.139	-2621861.05
187.362	-2869.60961
187.585	7544.27689
187.808	1951.49128
188.031	-51.17121
188.254	4643.58347
188.476	-1935.0048
188.699	2441.47905
188.922	363.41749
189.145	-5933.55394
189.368	-3677.17152
189.591	1675.05023
189.813	-130120.44189
190.036	8874.34167
190.259	1461.78326
190.482	5484.45966
190.705	16266.8682
190.927	17177.92147
191.15	-4205.31698
191.373	1984.03981
191.595	1413.20872
191.818	17168.45313
192.041	810.07375
192.263	-7701.00266
192.486	-1761.39963
192.709	2802.68733
192.931	-3342.25807
193.154	13616.80693
193.377	2555.56893
193.599	26853.8626
193.822	2049.18617
194.044	2049.82429
194.267	1088.95973
194.489	15.81311
194.712	3594.01488
194.934	33630.69127
195.157	-540.96129
195.379	11047.9692
195.602	1836.24827
195.824	4764.56351
196.047	6557.20041
196.269	13735.58287
196.492	-11976.87675
196.714	3908.87732
196.936	7114.50672
197.159	11191.19828
197.381	4534.42239
197.604	1975543.95567
197.826	2057.23584
198.048	2090.78481
198.271	9685.95606
198.493	2085.20398
198.715	2649.14086
198.938	7481.37419
199.16	3312.14814
199.382	9747.50598
199.604	9900.13653
199.827	1811.43614
200.049	3149.54453
200.271	19997.60261
200.493	1786.06549
200.715	7565.53095
200.938	7662.07358
201.16	-3720.87166
201.382	31671.28282
201.604	3993.90461
201.826	8331.32589
202.048	4466.98092
202.27	1937.24471
202.492	6037.4272
202.715	19486.71428
202.937	3899.69399
203.159	1522.53822
203.381	2218.97814
203.603	2800.4861
203.825	-1523.03536
204.047	-22064.95897
204.269	3401.15564
204.491	7487.97305
204.713	-1691419.17172
204.935	2403.94063
205.156	3990.50898
205.378	1691.81651
205.6	37288.8909
205.822	4755.07617
206.044	3231.38508
206.266	5990.75204
206.488	1519.32012
206.71	9431.66835
206.932	1417.89277
207.153	29055.49583
207.375	16252.55863
207.597	12574.97876
207.819	37870.12108
208.041	-44385.25947
208.262	1052.27145
208.484	13458.81426
208.706	3777.66668
208.927	2306.86788
209.149	939.11164
209.371	3562.7339
209.593	960.21369
209.814	10935.63683
210.036	-422933.91034
210.258	1577.1796
210.479	2247.50342
210.701	3432.37954
210.922	-5611.89117
211.144	-2954.51317
211.366	5109.57563
211.587	2378.00051
211.809	5726.47079
212.03	-63968.91968
212.252	490.20149
212.473	947.08888
212.695	800.22958
212.916	1324.91934
213.138	461.65199
213.359	4989.60112
213.581	2839.81823
213.802	833.21287
214.024	7364.62123
214.245	-13638.57873
214.466	500.58657
214.688	3723.93776
214.909	10050.03882
215.131	4200.43465
215.352	2673.4949
215.573	11775.15605
215.795	2195.39171
216.016	1881.02276
216.237	-727029.76199
216.459	1895.57557
216.68	5843.0193
216.901	3188.77548
217.122	799.22149
217.344	3100.18422
217.565	6990.63201
217.786	3587.016
218.007	924.60328
218.228	2244.1767
218.45	-16821.92862
218.671	51282.7577
218.892	19205.04192
219.113	1643.54697
219.334	11660.54285
219.555	-8370.32561
219.776	1809.13381
219.997	4045.2664
220.219	1067.22751
220.44	1608.67564
220.661	1480.6659
220.882	5813.93169
221.103	1462.44551
221.324	7712.68574
221.545	3079.19005
221.766	3213.18373
221.987	1409.3935
222.208	1035.16909
222.429	2184.79361
222.65	230.18929
222.87	793.22528
223.091	1786.68712
223.312	1097.646
223.533	2196.88817
223.754	1598.433
223.975	1705.44918
224.196	1081.57917
224.417	5162.32521
224.637	627.85442
224.858	70.95157
225.079	1079.7936
225.3	605.14596
225.521	2255.01735
225.741	620.29783
225.962	630.96185
226.183	217.48281
226.404	1014.27707
226.624	580.88049
226.845	598.97933
227.066	451.5233
227.286	312.05633
227.507	203.55531
227.728	151.41461
227.948	270.83072
228.169	94.8176
228.389	105.06405
228.61	54.82369
228.831	82.06511
229.051	9.21723
229.272	49.43959
229.492	75.03772
229.713	21.88863
229.933	52.24983
230.154	46.14965
230.374	76.44197
230.595	56.11238
230.815	31.75131
231.036	63.00217
231.256	-11.05404
231.477	92.90847
231.697	58.76322
231.917	58.29808
232.138	86.50301
232.358	159.50157
232.579	151.66082
232.799	16.26792
233.019	137.19143
233.24	161.18837
233.46	63.09759
233.68	88.03806
233.901	57.81277
234.121	40.82541
234.341	16.53474
234.561	-0.98559
234.782	60.74359
235.002	99.11822
235.222	-0.29624
235.442	87.07007
235.662	43.38888
235.883	91.65783
236.103	74.31425
236.323	55.10814
236.543	44.90266
236.763	59.62818
236.983	60.10516
237.203	63.83543
237.423	87.05253
237.643	125.90936
237.864	110.00884
238.084	27.73372
238.304	39.22933
238.524	67.43964
238.744	55.52336
238.964	98.95854
239.184	88.2022
239.404	90.4532
239.624	47.65728
239.843	84.80459
240.063	49.44253
240.283	31.78017
240.503	36.96941
240.723	34.64264
240.943	20.70688
241.163	25.82697
241.383	19.32396
241.603	10.3668
241.822	12.87607
242.042	9.83772
242.262	12.1483
242.482	13.20271
242.702	14.90206
242.921	4.84588
243.141	10.71866
243.361	9.46867
243.581	14.34525
243.8	12.06265
244.02	8.92633
244.24	15.39516
244.459	14.48676
244.679	28.52703
244.899	18.54181
245.118	21.26236
245.338	18.67009
245.558	21.568
245.777	12.9338
245.997	14.80804
246.216	14.16952
246.436	8.72348
246.655	6.60495
246.875	4.32058
247.094	8.50465
247.314	3.3343
247.533	5.01248
247.753	6.43561
247.972	5.27953
248.192	1.82035
248.411	2.69765
248.631	5.71204
248.85	6.99716
249.07	6.08539
249.289	9.82199
249.508	7.0217
249.728	11.9375
249.947	11.49433
250.166	13.44921
250.386	7.21518
250.605	9.94202
250.824	17.52579
251.044	12.47664
251.263	35.77999
251.482	20.34335
251.701	17.64816
251.921	0.30379
252.14	5.71571
252.359	6.15922
252.578	15.03211
252.798	5.00806
253.017	13.18681
253.236	7.24212
253.455	8.76159
253.674	17.75527
253.893	8.72246
254.112	12.9008
254.331	18.16781
254.551	15.39485
254.77	7.11155
254.989	19.90183
255.208	15.89787
255.427	22.79782
255.646	18.94129
255.865	32.03615
256.084	13.09057
256.303	15.7571
256.522	20.43923
256.741	4.29011
256.96	4.76957
257.179	12.84754
257.397	16.62285
257.616	8.72649
257.835	9.23136
258.054	22.85924
258.273	14.89529
258.492	16.0664
258.711	9.61808
258.93	4.54263
259.148	6.40772
259.367	5.90977
259.586	7.6601
259.805	3.3308
260.023	7.17604
260.242	5.50774
260.461	4.10013
260.68	2.09315
260.898	6.25566
261.117	2.151
261.336	1.6487
261.554	5.58254
261.773	5.50032
261.992	1.17828
262.21	5.23786
262.429	6.65888
262.648	10.62992
262.866	12.44392
263.085	8.7713
263.303	7.02967
263.522	12.49468
263.74	13.14081
263.959	22.53719
264.178	12.19739
264.396	9.72723
264.615	7.30873
264.833	16.95245
265.051	14.68683
265.27	14.82861
265.488	15.90262
265.707	9.60383
265.925	15.91183
266.144	7.4886
266.362	8.66874
266.58	8.25833
266.799	7.49785
267.017	8.8847
267.235	7.58701
267.454	5.28218
267.672	3.27323
267.89	6.8146
268.109	7.08491
268.327	6.80749
268.545	1.64669
268.763	6.22388
268.982	3.00112
269.2	7.3441
269.418	4.69161
269.636	3.17231
269.854	7.04179
270.073	4.80122
270.291	2.44821
270.509	3.52765
270.727	6.46588
270.945	10.7672
271.163	10.60294
271.381	2.51812
271.599	4.39892
271.817	7.74754
272.036	2.6206
272.254	4.6287
272.472	3.77663
272.69	3.50626
272.908	3.80959
273.126	6.08112
273.344	7.915
273.562	3.00896
273.779	4.23539
273.997	5.89074
274.215	6.63761
274.433	4.69135
274.651	6.93355
274.869	7.43799
275.087	4.46798
275.305	6.41723
275.523	4.20717
275.74	4.61399
275.958	8.17806
276.176	12.14821
276.394	3.37179
276.612	5.01188
276.829	4.85834
277.047	4.25103
277.265	4.91525
277.483	5.76003
277.7	6.38629
277.918	5.60249
278.136	9.33541
278.353	4.6695
278.571	2.59012
278.789	7.47655
279.006	1.6954
279.224	4.59237
279.442	7.33229
279.659	5.5409
279.877	4.04004
280.094	8.27872
280.312	1.54857
280.529	5.47112
280.747	1.76971
280.964	3.93392
281.182	8.49146
281.399	4.33691
281.617	5.61729
281.834	3.74345
282.052	3.06902
282.269	4.87816
282.487	3.93529
282.704	3.36115
282.921	3.39265
283.139	5.0196
283.356	6.30484
283.574	5.52458
283.791	3.12402
284.008	8.0433
284.226	4.53542
284.443	5.03978
284.66	6.21053
284.877	5.16139
285.095	3.09406
285.312	2.43662
285.529	1.40028
285.746	1.48474
285.964	3.29661
286.181	2.01314
286.398	2.86321
286.615	4.35459
286.832	3.82937
287.05	1.16095
287.267	3.07922
287.484	2.77695
287.701	4.23124
287.918	3.72804
288.135	3.972
288.352	1.91191
288.569	2.34067
288.786	3.78032
289.003	2.85655
289.22	4.32281
289.437	2.56716
289.654	4.18559
289.871	4.36362
290.088	4.39474
290.305	3.38545
290.522	2.65984
290.739	3.01413
290.956	4.78842
291.173	5.54309
291.39	5.17224
291.607	3.48765
291.824	2.87726
292.04	1.84205
292.257	4.35515
292.474	4.88521
292.691	3.28492
292.908	1.34011
293.125	2.25388
293.341	1.95476
293.558	7.55036
293.775	2.89949
293.992	3.17912
294.208	1.52969
294.425	2.12941
294.642	2.94916
294.858	4.14854
295.075	1.3334
295.292	2.98379
295.508	3.5887
295.725	5.58927
295.942	2.66052
296.158	1.7422
296.375	3.0686
296.591	2.40061
296.808	2.46025
297.024	2.81131
297.241	3.31838
297.458	3.41946
297.674	0.29281
297.891	2.84828
298.107	2.15063
298.323	1.56171
298.54	4.27737
298.756	1.93781
298.973	0.92797
299.189	4.47645
299.406	1.79618
299.622	4.49453
299.838	4.21177
300.055	3.92498
300.271	0.92946
300.487	1.61157
300.704	1.57445
300.92	1.16282
301.136	5.75127
301.353	4.51672
301.569	2.75142
301.785	3.33854
302.001	3.98414
302.218	3.71454
302.434	3.43712
302.65	1.06563
302.866	2.31584
303.083	5.94916
303.299	5.92819
303.515	2.69523
303.731	3.11015
303.947	1.04875
304.163	1.98991
304.379	3.15356
304.595	3.67631
304.812	2.01522
305.028	1.6734
305.244	2.48169
305.46	4.05973
305.676	3.95233
305.892	4.69359
306.108	3.32992
306.324	2.40883
306.54	5.41158
306.756	3.59503
306.972	3.70374
307.187	2.30153
307.403	5.1596
307.619	2.37836
307.835	4.46621
308.051	4.98243
308.267	1.39362
308.483	4.13927
308.699	3.42629
308.914	3.12966
309.13	2.90146
309.346	0.89719
309.562	1.50559
309.778	0.90306
309.993	3.70124
310.209	2.53109
310.425	1.31389
310.641	2.34723
310.856	1.38027
311.072	1.37343
311.288	2.75259
311.503	2.96744
311.719	0.6328
311.935	0.48541
312.15	3.11393
312.366	2.72225
312.581	3.39975
312.797	2.58376
313.013	3.77374
313.228	2.11923
313.444	2.93623
313.659	1.88599
313.875	3.65249
314.09	2.87806
314.306	4.84704
314.521	4.01918
314.737	3.71721
314.952	3.21211
315.168	2.8952
315.383	3.54601
315.599	2.71609
315.814	2.52633
316.029	3.93477
316.245	1.08499
316.46	1.03359
316.675	4.87282
316.891	5.62735
317.106	6.92409
317.321	3.72667
317.537	3.85786
317.752	3.74332
317.967	3.99076
318.183	1.85545
318.398	2.63577
318.613	4.55446
318.828	4.75124
319.043	4.38222
319.259	2.5037
319.474	3.43588
319.689	4.51862
319.904	0.56315
320.119	3.71129
320.334	3.33202
320.549	2.61048
320.765	4.47113
320.98	3.48535
321.195	4.21363
321.41	2.76415
321.625	4.18238
321.84	5.53219
322.055	5.58424
322.27	2.16228
322.485	1.89157
322.7	3.29619
322.915	4.54478
323.13	1.80394
323.345	5.05866
323.56	3.96302
323.775	3.93842
323.989	3.50232
324.204	3.49826
324.419	4.3069
324.634	1.26649
324.849	2.87128
325.064	5.96651
325.279	4.19767
325.493	3.64805
325.708	4.45881
325.923	2.08297
326.138	1.93875
326.352	5.14124
326.567	4.53227
326.782	2.3472
326.997	1.8672
327.211	3.97258
327.426	3.83479
327.641	2.52226
327.855	0.89413
328.07	3.69294
328.285	5.22744
328.499	2.62295
328.714	3.58358
328.928	4.22299
329.143	3.37415
329.358	4.34351
329.572	4.67031
329.787	4.77328
330.001	6.50863
330.216	1.20189
330.43	5.20177
330.645	5.45697
330.859	4.22445
331.074	2.33603
331.288	3.54449
331.503	4.64052
331.717	1.75273
331.931	2.95507
332.146	2.97695
332.36	5.70951
332.575	3.8912
332.789	3.47541
333.003	2.7992
333.218	3.66487
333.432	2.02522
333.646	3.9143
333.86	5.07827
334.075	5.3758
334.289	2.19705
334.503	1.95763
334.717	3.71977
334.932	3.56285
335.146	4.99564
335.36	2.88032
335.574	4.45045
335.788	4.29172
336.003	5.12051
336.217	4.20528
336.431	4.19995
336.645	2.40543
336.859	1.60668
337.073	2.81934
337.287	3.45445
337.501	1.76289
337.715	3.29015
337.929	3.77998
338.143	1.56012
338.357	2.81516
338.571	1.63622
338.785	3.52226
338.999	2.48619
339.213	2.29182
339.427	1.52786
339.641	4.58786
339.855	2.8483
340.069	2.2924
340.283	4.63029
340.497	5.39067
340.711	3.58608
340.924	2.48455
341.138	1.79054
341.352	1.40473
341.566	3.41194
341.78	1.04169
341.993	2.4299
342.207	1.47158
342.421	3.20917
342.635	2.76168
342.848	2.25873
343.062	0.38904
343.276	2.21772
343.49	5.80203
343.703	2.17846
343.917	4.08635
344.131	4.03143
344.344	2.10778
344.558	2.43728
344.771	1.84116
344.985	4.69311
345.199	4.97813
345.412	3.21969
345.626	3.31297
345.839	0.91847
346.053	1.42639
346.266	1.7273
346.48	4.11671
346.693	3.39557
346.907	3.40351
347.12	1.79545
347.334	3.32133
347.547	3.38272
347.76	2.64972
347.974	4.45932
348.187	3.40727
348.401	2.41292
348.614	2.1729
348.827	2.27248
349.041	3.64902
349.254	1.0494
349.467	2.64562
349.681	1.32365
349.894	2.14136
350.107	4.3698
350.32	4.72972
350.534	1.05585
350.747	2.35235
350.96	1.86648
351.173	2.07671
351.386	2.38657
351.6	2.46051
351.813	1.83592
352.026	2.94921
352.239	0.92633
352.452	2.5794
352.665	3.77806
352.878	2.54726
353.092	5.34469
353.305	3.50156
353.518	2.83884
353.731	1.83508
353.944	3.99897
354.157	1.88573
354.37	1.63533
354.583	1.49875
354.796	0.79937
355.009	4.2314
355.222	2.71528
355.435	2.78566
355.647	3.91873
355.86	1.36186
356.073	2.64391
356.286	2.02638
356.499	3.46836
356.712	2.78268
356.925	3.1665
357.138	3.71329
357.35	1.36006
357.563	2.17638
357.776	2.69971
357.989	2.03571
358.201	3.14049
358.414	2.59996
358.627	3.76877
358.84	2.20281
359.052	1.35623
359.265	1.2762
359.478	3.76867
359.69	-0.37353
359.903	3.1037
360.116	3.28151
360.328	0.57095
360.541	3.28841
360.753	1.36074
360.966	1.59459
361.179	1.74208
361.391	1.65655
361.604	1.07667
361.816	1.6734
362.029	1.36042
362.241	1.17637
362.454	1.46179
362.666	1.26764
362.879	2.25384
363.091	2.01457
363.304	1.38624
363.516	2.22434
363.728	0.90969
363.941	2.84455
364.153	1.44617
364.366	-0.21975
364.578	1.05324
364.79	2.83689
365.003	1.89482
365.215	1.70662
365.427	2.69671
365.639	3.42006
365.852	2.49959
366.064	4.35849
366.276	1.68399
366.488	2.8104
366.701	1.74345
366.913	2.11144
367.125	1.63501
367.337	1.68144
367.549	1.62438
367.762	2.25499
367.974	2.2102
368.186	1.28119
368.398	3.42482
368.61	2.95651
368.822	2.9734
369.034	2.26119
369.246	2.94999
369.458	4.93262
369.67	1.22891
369.882	4.36063
370.094	0.13826
370.306	4.10187
370.518	1.76006
370.73	1.50564
370.942	1.33123
371.154	1.80602
371.366	1.59058
371.578	2.42971
371.79	1.20693
372.002	3.49721
372.214	3.99094
372.425	2.41123
372.637	3.55724
372.849	2.44224
373.061	0.14752
373.273	2.57782
373.484	2.54541
373.696	3.20501
373.908	-0.08213
374.12	3.36236
374.331	2.7636
374.543	1.29563
374.755	1.15913
374.967	2.26871
375.178	3.0603
375.39	1.91336
375.602	2.22282
375.813	0.95922
376.025	0.87257
376.236	2.11466
376.448	2.3168
376.66	1.35353
376.871	1.42339
377.083	3.06503
377.294	3.16354
377.506	1.49011
377.717	3.39255
377.929	2.258
378.14	1.13161
378.352	2.62819
378.563	2.41888
378.775	3.44162
378.986	1.4113
379.197	2.05942
379.409	1.68121
379.62	2.89173
379.832	2.52308
380.043	1.8749
380.254	2.10602
380.466	0.83151
380.677	5.05426
380.888	4.45504
381.1	4.69503
381.311	4.47346
381.522	1.87402
381.733	5.24283
381.945	1.63048
382.156	2.50831
382.367	1.62494
382.578	5.23022
382.789	4.95472
383.001	1.69291
383.212	3.3942
383.423	3.71192
383.634	3.31458
383.845	2.45588
384.056	1.69484
384.267	2.05136
384.478	1.80798
384.69	0.91813
384.901	2.52306
385.112	2.32448
385.323	3.72866
385.534	2.54023
385.745	2.16452
385.956	2.47089
386.167	0.92483
386.378	2.50212
386.588	0.61861
386.799	1.24415
387.01	0.24535
387.221	2.92459
387.432	1.74259
387.643	4.01329
387.854	1.88729
388.065	1.54496
388.275	1.901
388.486	1.7315
388.697	1.91121
388.908	1.73444
389.119	3.25082
389.329	3.79434
389.54	2.15958
389.751	2.43324
389.962	3.19132
390.172	2.36287
390.383	1.31971
390.594	1.14636
390.804	1.31691
391.015	1.46257
391.226	1.92584
391.436	2.34655
391.647	2.32595
391.858	2.56824
392.068	0.33131
392.279	0.72089
392.489	1.98554
392.7	3.02589
392.91	0.69101
393.121	1.16632
393.331	2.35558
393.542	3.23693
393.752	2.44085
393.963	1.72849
394.173	1.75012
394.384	2.47313
394.594	1.90382
394.804	0.6573
395.015	2.17666
395.225	2.24352
395.436	0.7773
395.646	2.52754
395.856	1.05468
396.067	0.69795
396.277	3.14071
396.487	2.34387
396.697	1.88629
396.908	2.65764
397.118	2.58142
397.328	1.94562
397.538	3.00217
397.749	1.08839
397.959	2.85167
398.169	2.74192
398.379	0.60172
398.589	2.79618
398.8	2.05039
399.01	1.46909
399.22	1.81312
399.43	4.37509
399.64	1.52184
399.85	2.72915
400.06	1.86004
400.27	1.37848
400.48	2.15443
400.69	3.61976
400.9	1.54737
401.11	1.24768
401.32	3.00219
401.53	1.4856
401.74	3.7568
401.95	2.88964
402.16	1.09495
402.37	2.18428
402.58	1.43904
402.79	2.91697
403	3.00682
403.209	1.36324
403.419	2.7924
403.629	1.48348
403.839	2.67715
404.049	2.69956
404.258	1.14517
404.468	0.90068
404.678	2.44216
404.888	2.50679
405.097	0.99513
405.307	1.91444
405.517	2.4909
405.727	2.20032
405.936	1.54177
406.146	2.24381
406.356	3.33166
406.565	2.06072
406.775	1.51506
406.984	1.42251
407.194	3.71253
407.404	2.02075
407.613	2.28243
407.823	2.91059
408.032	3.02572
408.242	3.12912
408.451	1.74174
408.661	1.94311
408.87	3.7904
409.08	1.53738
409.289	2.51992
409.499	2.08765
409.708	2.29162
409.918	0.26793
410.127	2.07549
410.336	3.65616
410.546	2.75374
410.755	1.56118
410.964	1.73773
411.174	1.48517
411.383	2.73886
411.592	2.60947
411.802	1.21494
412.011	3.10282
412.22	2.24153
412.429	3.74291
412.639	3.36237
412.848	3.479
413.057	3.66213
413.266	3.38641
413.475	2.18306
413.685	3.10338
413.894	2.99296
414.103	3.48425
414.312	2.91256
414.521	2.2814
414.73	2.41646
414.939	4.14013
415.148	2.82679
415.357	2.46905
415.566	1.79792
415.776	1.88304
415.985	1.70622
416.194	2.87624
416.403	3.54923
416.611	0.99042
416.82	1.45373
417.029	2.1175
417.238	1.36255
417.447	1.12714
417.656	1.44619
417.865	1.13468
418.074	1.42797
418.283	1.70288
418.492	2.41684
418.7	2.30997
418.909	2.86556
419.118	1.88532
419.327	2.07906
419.536	1.90446
419.744	1.17229
419.953	2.45335
420.162	2.2869
420.371	1.18587
420.579	1.08731
420.788	2.24334
420.997	2.11464
421.205	2.1704
421.414	1.81059
421.623	1.77544
421.831	1.39407
422.04	2.2892
422.249	1.20559
422.457	2.0101
422.666	1.37128
422.874	2.47425
423.083	2.4814
423.291	2.2778
423.5	1.94125
423.708	2.16965
423.917	2.56873
424.125	1.98542
424.334	1.60216
424.542	3.66482
424.751	2.82747
424.959	2.5928
425.167	2.96834
425.376	2.78561
425.584	2.03714
425.793	2.4597
426.001	1.54185
426.209	2.8479
426.418	1.77634
426.626	2.03435
426.834	1.66599
427.042	2.26114
427.251	1.84347
427.459	3.12897
427.667	2.70435
427.875	1.42171
428.084	2.11984
428.292	3.41281
428.5	2.77241
428.708	1.82433
428.916	1.6583
429.124	2.55793
429.333	2.27111
429.541	2.0507
429.749	2.44413
429.957	2.39969
430.165	4.35065
430.373	1.40462
430.581	2.61367
430.789	3.58099
430.997	2.10473
431.205	1.98644
431.413	2.37618
431.621	2.25209
431.829	2.96258
432.037	2.06002
432.245	2.95982
432.453	2.61763
432.661	2.02784
432.869	3.9159
433.076	1.45403
433.284	2.13899
433.492	2.70342
433.7	3.27503
433.908	1.87353
434.116	2.37526
434.323	2.44834
434.531	2.41836
434.739	2.78533
434.947	3.2584
435.154	2.9839
435.362	2.66624
435.57	2.27659
435.778	2.25156
435.985	2.91924
436.193	2.22931
436.401	3.5206
436.608	2.62683
436.816	2.23393
437.023	3.96533
437.231	3.88497
437.439	2.72564
437.646	2.94698
437.854	2.83661
438.061	3.16734
438.269	2.38521
438.476	3.08468
438.684	2.63013
438.891	2.21496
439.099	1.85493
439.306	1.41105
439.514	1.65216
439.721	2.59478
439.929	1.94196
440.136	2.68013
440.343	2.53231
440.551	2.15649
440.758	3.83119
440.965	2.878
441.173	2.59069
441.38	2.01581
441.587	2.71237
441.795	2.1357
442.002	2.80423
442.209	2.89362
442.416	3.22297
442.624	3.04157
442.831	2.93455
443.038	2.22548
443.245	1.91029
443.452	2.24182
443.66	3.35234
443.867	1.99072
444.074	2.17299
444.281	2.07225
444.488	2.4646
444.695	2.38851
444.902	2.11593
445.109	2.81051
445.316	2.16363
445.523	1.95015
445.73	1.66194
445.937	2.44242
446.144	2.80326
446.351	2.70438
446.558	1.81191
446.765	3.06999
446.972	3.15447
447.179	2.33462
447.386	3.47399
447.593	2.15173
447.8	3.46454
448.007	2.34431
448.214	2.60519
448.42	2.22868
448.627	3.62235
448.834	2.56549
449.041	2.47939
449.248	2.55174
449.454	3.57003
449.661	4.18679
449.868	2.64141
450.075	2.32533
450.281	1.07782
450.488	1.87322
450.695	2.20586
450.901	2.15848
451.108	2.41104
451.315	3.52978
451.521	2.75608
451.728	3.47015
451.935	2.24641
452.141	2.5769
452.348	2.78984
452.554	2.55868
452.761	2.43391
452.967	4.03011
453.174	2.80215
453.38	3.1055
453.587	1.80713
453.793	2.88389
454	3.66618
454.206	4.61829
454.413	3.85443
454.619	3.18433
454.825	2.11798
455.032	3.43385
455.238	3.75067
455.445	1.90799
455.651	2.9926
455.857	1.34151
456.064	2.73663
456.27	2.6773
456.476	2.84403
456.682	1.88584
456.889	3.35048
457.095	3.4545
457.301	4.93967
457.507	2.8138
457.714	3.04632
457.92	2.70816
458.126	2.14834
458.332	2.39098
458.538	2.20358
458.744	2.17546
458.951	2.26226
459.157	3.68392
459.363	2.49242
459.569	2.31844
459.775	3.04797
459.981	1.90228
460.187	2.43433
460.393	2.93408
460.599	3.58994
460.805	2.40386
461.011	2.89311
461.217	3.7157
461.423	3.95672
461.629	2.65935
461.835	3.65738
462.041	2.89024
462.247	4.5654
462.453	2.85952
462.658	3.10392
462.864	3.66453
463.07	3.22476
463.276	3.4577
463.482	3.45591
463.688	4.24893
463.893	2.74037
464.099	2.86232
464.305	4.46317
464.511	2.62592
464.716	3.19362
464.922	3.60513
465.128	2.64868
465.333	4.73565
465.539	3.66706
465.745	2.88696
465.95	3.32552
466.156	5.46872
466.362	4.16574
466.567	2.92355
466.773	2.74504
466.978	4.48719
467.184	2.39316
467.389	1.31918
467.595	3.7958
467.8	2.36894
468.006	4.49819
468.211	4.2302
468.417	2.46127
468.622	3.71071
468.828	4.00762
469.033	3.52679
469.239	5.71945
469.444	2.89477
469.649	4.12521
469.855	3.07321
470.06	3.5122
470.266	2.40474
470.471	3.84987
470.676	3.56341
470.881	2.07287
471.087	4.2149
471.292	5.05655
471.497	2.30661
471.703	2.93606
471.908	2.79968
472.113	3.39986
472.318	4.15398
472.523	2.51973
472.729	3.60054
472.934	3.8052
473.139	2.98682
473.344	3.87605
473.549	4.35749
473.754	2.7003
473.959	5.26091
474.164	2.65422
474.369	3.28046
474.575	4.07506
474.78	3.43475
474.985	3.07658
475.19	2.0129
475.395	2.64174
475.6	3.05378
475.804	4.24721
476.009	3.0889
476.214	3.34177
476.419	2.84375
476.624	1.84781
476.829	2.49205
477.034	3.62618
477.239	2.36512
477.444	3.35693
477.648	3.42385
477.853	3.72731
478.058	2.80671
478.263	2.50673
478.468	2.23399
478.672	2.25475
478.877	4.13547
479.082	4.67755
479.287	3.37362
479.491	3.29166
479.696	2.12365
479.901	3.82579
480.105	3.64483
480.31	2.58428
480.515	2.7439
480.719	4.82579
480.924	2.43943
481.128	2.04984
481.333	2.85763
481.538	2.93252
481.742	2.38387
481.947	2.90641
482.151	2.89678
482.356	2.73283
482.56	3.46034
482.765	3.49932
482.969	4.40926
483.174	5.03764
483.378	6.11456
483.582	5.71726
483.787	6.64604
483.991	6.39883
484.196	6.65292
484.4	6.40346
484.604	6.9575
484.809	5.6835
485.013	5.6956
485.217	4.97884
485.422	4.44506
485.626	4.0252
485.83	3.88441
486.034	3.75036
486.239	3.91544
486.443	3.77765
486.647	3.70206
486.851	4.42705
487.055	4.86131
487.26	4.05945
487.464	4.62998
487.668	4.0615
487.872	4.03318
488.076	4.68415
488.28	4.21725
488.484	3.92907
488.688	3.84262
488.892	4.10827
489.096	3.94119
489.3	3.37502
489.504	3.23504
489.708	3.5278
489.912	3.56446
490.116	3.35446
490.32	2.63959
490.524	3.42395
490.728	3.54337
490.932	3.40464
491.136	3.11671
491.34	4.263
491.544	4.39747
491.748	3.78943
491.951	4.04932
492.155	3.55475
492.359	3.90285
492.563	2.98381
492.767	2.85789
492.97	2.99325
493.174	2.60381
493.378	2.97384
493.582	2.46887
493.785	3.16574
493.989	3.47229
494.193	3.39154
494.396	3.06404
494.6	3.84797
494.804	3.26423
495.007	2.64942
495.211	2.72506
495.414	2.99238
495.618	3.13512
495.822	3.94944
496.025	2.90105
496.229	3.72912
496.432	2.4337
496.636	2.95332
496.839	2.7964
497.043	4.30102
497.246	3.17358
497.45	2.76742
497.653	2.81275
497.856	3.25249
498.06	2.03484
498.263	2.74405
498.467	2.49161
498.67	3.82027
498.873	3.4705
499.077	2.83671
499.28	2.76164
499.483	3.37723
499.686	3.7427
499.89	3.47068
500.093	3.71446
500.296	2.76973
500.499	4.32023
500.703	3.14761
500.906	3.35031
501.109	4.74153
501.312	3.42046
501.515	3.0919
501.719	3.58496
501.922	4.69914
502.125	3.55802
502.328	3.19026
502.531	2.2303
502.734	3.3405
502.937	1.71804
503.14	3.37647
503.343	2.16975
503.546	2.8376
503.749	2.50297
503.952	3.59451
504.155	2.43695
504.358	3.69176
504.561	3.18696
504.764	2.3654
504.967	3.20499
505.17	3.31448
505.373	4.59882
505.576	3.36804
505.778	3.789
505.981	2.74681
506.184	4.09015
506.387	2.01451
506.59	4.75776
506.793	4.14892
506.995	3.52036
507.198	1.83038
507.401	3.3207
507.604	3.51753
507.806	2.3799
508.009	2.60182
508.212	3.52146
508.414	2.67265
508.617	2.39737
508.82	2.99475
509.022	3.97322
509.225	3.15791
509.427	1.86722
509.63	4.09932
509.833	2.95064
510.035	2.91892
510.238	1.75513
510.44	3.93627
510.643	1.35913
510.845	4.94965
511.048	3.32685
511.25	2.74627
511.453	2.92396
511.655	3.34557
511.858	2.66271
512.06	3.71252
512.262	3.12472
512.465	3.65884
512.667	2.45685
512.869	2.28307
513.072	3.3964
513.274	3.79861
513.476	3.66562
513.679	3.8116
513.881	2.24124
514.083	4.54708
514.286	2.64713
514.488	2.81261
514.69	2.43558
514.892	2.0023
515.094	3.61609
515.297	2.94111
515.499	3.38181
515.701	2.40682
515.903	4.51756
516.105	4.26627
516.307	3.78483
516.509	1.45316
516.711	1.8866
516.913	3.10736
517.116	2.73929
517.318	2.48912
517.52	3.72779
517.722	3.08636
517.924	1.78643
518.126	2.90548
518.328	2.06242
518.529	3.02059
518.731	3.98661
518.933	2.17042
519.135	2.66882
519.337	3.62466
519.539	3.20187
519.741	1.66388
519.943	2.77558
520.145	2.79359
520.346	3.36881
520.548	2.71703
520.75	3.30969
520.952	2.77125
521.153	3.2139
521.355	3.45741
521.557	2.35671
521.759	3.35234
521.96	3.07741
522.162	2.243
522.364	3.82181
522.565	2.32794
522.767	3.57089
522.969	4.16899
523.17	3.49217
523.372	3.58298
523.573	2.29542
523.775	2.8603
523.977	2.15936
524.178	4.28736
524.38	2.25762
524.581	3.35134
524.783	2.40266
524.984	3.15739
525.186	2.66024
525.387	3.15653
525.589	2.61236
525.79	2.29014
525.991	1.87652
526.193	2.80187
526.394	1.53046
526.596	2.71701
526.797	2.48812
526.998	2.1222
527.2	1.5716
527.401	3.0467
527.602	2.81151
527.803	4.0008
528.005	3.60197
528.206	4.00827
528.407	4.28017
528.608	3.75418
528.81	3.95365
529.011	3.33967
529.212	4.48749
529.413	3.77819
529.614	3.52302
529.815	3.6281
530.017	3.48976
530.218	2.99026
530.419	2.51737
530.62	2.84429
530.821	2.86466
531.022	2.00756
531.223	3.15618
531.424	3.20668
531.625	3.01812
531.826	2.82174
532.027	2.59658
532.228	3.33826
532.429	2.77838
532.63	2.6
532.831	2.86685
533.032	2.94835
533.233	3.30912
533.433	3.14671
533.634	3.28206
533.835	2.68372
534.036	2.28536
534.237	2.69013
534.438	2.40622
534.638	2.13133
534.839	2.37475
535.04	3.14313
535.241	2.52363
535.441	3.7743
535.642	2.88645
535.843	1.89219
536.043	1.93358
536.244	2.23242
536.445	2.29613
536.645	3.19807
536.846	2.56275
537.047	3.52052
537.247	2.08392
537.448	2.5726
537.648	2.78891
537.849	2.91088
538.049	2.85312
538.25	3.65359
538.451	3.18808
538.651	2.3454
538.851	3.42338
539.052	3.88155
539.252	3.52484
539.453	2.82723
539.653	2.70156
539.854	2.79783
540.054	2.51299
540.254	3.10073
540.455	3.1298
540.655	2.33112
540.855	2.92994
541.056	3.34763
541.256	2.82605
541.456	3.78679
541.657	2.79765
541.857	3.80395
542.057	2.37444
542.257	2.34582
542.458	3.26314
542.658	3.44868
542.858	2.04997
543.058	3.4107
543.258	3.04614
543.458	2.04009
543.659	1.82073
543.859	3.1362
544.059	3.23967
544.259	2.71217
544.459	3.52721
544.659	2.5208
544.859	3.29305
545.059	2.41734
545.259	3.33811
545.459	3.13487
545.659	3.56713
545.859	2.91772
546.059	2.98395
546.259	2.14296
546.459	1.64281
546.659	2.03817
546.859	3.26556
547.059	3.11395
547.258	3.30302
547.458	3.18854
547.658	2.02557
547.858	2.23437
548.058	3.53411
548.258	3.19044
548.457	2.56008
548.657	6.04482
548.857	3.08164
549.057	4.28544
549.256	3.87024
549.456	3.56458
549.656	1.74635
549.855	5.51007
550.055	3.57272
550.255	5.33409
550.454	4.27215
550.654	4.59642
550.853	5.02161
551.053	4.78425
551.253	4.10422
551.452	4.0395
551.652	2.36958
551.851	2.00313
552.051	3.10665
552.25	2.93043
552.45	2.58212
552.649	3.04384
552.849	2.59303
553.048	3.62357
553.248	3.88234
553.447	2.50378
553.646	4.4437
553.846	5.53378
554.045	4.82499
554.244	2.58099
554.444	5.44671
554.643	2.91901
554.842	5.43862
555.042	6.01791
555.241	3.37167
555.44	2.96514
555.64	3.95931
555.839	5.56285
556.038	4.6373
556.237	3.6752
556.436	3.59293
556.636	4.20872
556.835	3.16123
557.034	5.63225
557.233	3.91715
557.432	2.87358
557.631	5.15454
557.83	3.55749
558.029	3.40221
558.228	3.68846
558.427	2.90046
558.626	4.42929
558.825	3.1855
559.024	4.29818
559.223	6.09858
559.422	3.87535
559.621	4.68206
559.82	1.60074
560.019	4.18916
560.218	3.41105
560.417	0.93065
560.616	3.52602
560.815	7.39321
561.014	2.37659
561.212	4.97832
561.411	4.018
561.61	2.0698
561.809	3.61114
562.008	5.5941
562.206	3.79954
562.405	4.64545
562.604	3.83417
562.803	4.05783
563.001	3.96867
563.2	2.47756
563.399	4.82056
563.597	2.59197
563.796	4.36534
563.995	2.51695
564.193	4.55907
564.392	3.22254
564.59	6.48137
564.789	1.68586
564.988	3.38664
565.186	3.66827
565.385	3.31302
565.583	3.00899
565.782	3.52364
565.98	3.05695
566.179	3.31845
566.377	1.88898
566.575	2.32907
566.774	4.4658
566.972	4.58116
567.171	5.69792
567.369	5.20864
567.567	3.69357
567.766	4.2755
567.964	1.71348
568.162	4.5341
568.361	5.19113
568.559	3.84777
568.757	4.2568
568.956	3.97328
569.154	3.70818
569.352	5.03777
569.55	3.75713
569.748	3.7457
569.947	2.85083
570.145	2.98985
570.343	2.51158
570.541	5.14204
570.739	2.08546
570.937	3.64383
571.135	3.97783
571.333	5.44993
571.532	5.41272
571.73	3.7663
571.928	4.25061
572.126	4.01278
572.324	3.08229
572.522	4.76154
572.72	6.46794
572.918	3.70837
573.116	3.92123
573.313	3.61982
573.511	3.47675
573.709	3.43014
573.907	4.36782
574.105	3.30537
574.303	1.76296
574.501	2.20269
574.699	3.76222
574.896	3.89496
575.094	4.30538
575.292	2.24418
575.49	4.70074
575.688	3.71454
575.885	5.38573
576.083	5.8166
576.281	4.35804
576.478	3.34767
576.676	4.87422
576.874	2.80005
577.071	3.75177
577.269	6.94787
577.467	4.08541
577.664	4.17915
577.862	5.24301
578.059	3.84097
578.257	5.14841
578.455	4.15621
578.652	4.43741
578.85	2.3244
579.047	4.66201
579.245	4.36436
579.442	4.6169
579.64	4.46968
579.837	2.00452
580.034	7.56337
580.232	3.99516
580.429	3.16113
580.627	5.63282
580.824	6.25748
581.021	5.15249
581.219	4.38161
581.416	3.50437
581.613	6.27568
581.811	6.20129
582.008	3.65582
582.205	5.74202
582.402	5.00993
582.6	6.71254
582.797	5.07173
582.994	5.53436
583.191	6.05033
583.388	5.12751
583.586	6.01464
583.783	6.78922
583.98	3.53817
584.177	5.04695
584.374	0.74181
584.571	4.88839
584.768	5.01815
584.965	4.93054
585.162	5.90997
585.359	7.36142
585.556	4.80065
585.753	5.36085
585.95	3.01953
586.147	3.96712
586.344	5.86634
586.541	4.681
586.738	3.38039
586.935	4.87866
587.132	4.37899
587.329	6.63143
587.526	4.57644
587.722	11.87786
587.919	3.14539
588.116	5.38593
588.313	7.24085
588.51	8.03921
588.706	4.82054
588.903	5.63584
589.1	5.96302
589.297	9.06183
589.493	4.96515
589.69	5.54727
589.887	4.10618
590.083	3.03699
590.28	3.76691
590.477	6.26079
590.673	5.66202
590.87	6.63217
591.067	4.15123
591.263	5.87744
591.46	5.97847
591.656	4.97375
591.853	6.97814
592.049	4.15138
592.246	4.1762
592.442	7.21325
592.639	6.38393
592.835	3.26753
593.032	5.80695
593.228	2.81167
593.425	2.9661
593.621	3.00224
593.817	4.86125
594.014	4.0952
594.21	5.12239
594.406	6.36134
594.603	5.07131
594.799	4.12635
594.995	1.61139
595.192	6.3076
595.388	4.01046
595.584	3.81246
595.78	2.5268
595.977	7.62409
596.173	6.74625
596.369	3.94042
596.565	3.14931
596.761	2.40562
596.957	5.79647
597.154	3.19553
597.35	3.63426
597.546	3.34571
597.742	4.91219
597.938	4.80303
598.134	3.30733
598.33	5.04239
598.526	7.20954
598.722	6.30028
598.918	7.72683
599.114	5.95556
599.31	3.99125
599.506	5.6593
599.702	4.14692
599.898	6.11384
600.094	7.11585
600.29	6.87116
600.485	6.17407
600.681	4.72607
600.877	7.98098
601.073	5.68612
601.269	8.44072
601.465	7.27425
601.66	4.12054
601.856	2.5799
602.052	7.5474
602.248	4.45107
602.443	1.79035
602.639	2.9342
602.835	3.67301
603.03	3.52882
603.226	5.89228
603.422	3.35158
603.617	4.08491
603.813	3.70665
604.009	3.33219
604.204	5.76455
604.4	1.88398
604.595	5.40405
604.791	2.92609
604.986	4.33999
605.182	2.96321
605.377	3.60066
605.573	3.66176
605.768	4.80218
605.964	5.32809
606.159	5.9015
606.355	6.90984
606.55	4.74914
606.746	6.46225
606.941	5.20201
607.136	8.17759
607.332	10.00082
607.527	3.41809
607.722	5.87143
607.918	5.11337
608.113	3.54133
608.308	6.06602
608.503	5.70191
608.699	5.44246
608.894	5.31445
609.089	3.34845
609.284	5.03113
609.479	3.69654
609.675	5.19847
609.87	3.93773
610.065	5.42304
610.26	6.3109
610.455	6.18604
610.65	4.71806
610.845	5.40978
611.04	6.418
611.235	4.86152
611.43	4.71046
611.625	3.45147
611.82	7.65987
612.015	4.15081
612.21	8.45603
612.405	3.38903
612.6	9.29894
612.795	8.28571
612.99	7.71948
613.185	3.97184
613.38	4.24573
613.575	6.32267
613.77	10.75824
613.965	3.25077
614.159	4.30548
614.354	8.45646
614.549	8.18109
614.744	7.41192
614.938	4.57635
615.133	3.73578
615.328	8.50599
615.523	8.97995
615.717	11.4508
615.912	5.32505
616.107	6.37117
616.301	5.89841
616.496	4.5192
616.691	9.81487
616.885	7.55022
617.08	10.73467
617.274	8.42509
617.469	10.30334
617.664	7.58775
617.858	5.33393
618.053	6.54613
618.247	6.2047
618.442	2.27866
618.636	8.76987
618.831	5.748
619.025	5.84161
619.219	11.56253
619.414	-0.00138
619.608	6.44025
619.803	4.52704
619.997	10.71782
620.191	8.993
620.386	7.44243
620.58	6.9868
620.774	2.85094
620.969	3.15441
621.163	6.71973
621.357	4.1901
621.551	6.18744
621.746	6.98426
621.94	6.89534
622.134	13.98167
622.328	11.02912
622.522	4.06439
622.716	8.97131
622.911	8.55373
623.105	7.84341
623.299	6.90933
623.493	13.60104
623.687	4.84401
623.881	6.04769
624.075	7.95877
624.269	8.8379
624.463	3.22966
624.657	3.12027
624.851	7.62101
625.045	8.43585
625.239	8.11227
625.433	4.39652
625.627	9.43192
625.821	5.01374
626.015	4.40785
626.209	5.8871
626.403	3.17354
626.596	6.46799
626.79	7.12286
626.984	3.64035
627.178	6.5167
627.372	6.73829
627.565	7.66403
627.759	3.02395
627.953	3.70627
628.147	7.26187
628.34	7.30154
628.534	10.32934
628.728	6.13904
628.921	8.63194
629.115	8.34951
629.309	8.36483
629.502	8.85971
629.696	7.50564
629.89	6.76371
630.083	6.97692
630.277	8.1159
630.47	10.97005
630.664	6.49649
630.857	3.8234
631.051	9.16832
631.244	9.8895
631.438	8.99796
631.631	5.17653
631.825	10.01666
632.018	8.53409
632.212	10.87129
632.405	9.53034
632.598	5.48456
632.792	7.4882
632.985	2.08518
633.178	5.53227
633.372	6.78878
633.565	6.74138
633.758	9.64865
633.952	4.97715
634.145	4.96463
634.338	6.08077
634.531	6.54291
634.724	5.35779
634.918	7.48172
635.111	6.10732
635.304	5.81421
635.497	12.51518
635.69	8.29205
635.883	9.68012
636.077	4.19875
636.27	8.33667
636.463	8.07402
636.656	8.12889
636.849	6.13463
637.042	8.14523
637.235	12.3145
637.428	9.17436
637.621	8.46643
637.814	11.78149
638.007	11.43002
638.2	12.11993
638.393	13.14802
638.586	5.24162
638.778	6.50308
638.971	9.02817
639.164	12.00938
639.357	9.77085
639.55	11.79572
639.743	10.11486
639.935	10.21888
640.128	13.61801
640.321	10.4318
640.514	9.2021
640.707	15.22445
640.899	10.40263
641.092	4.41889
641.285	28.50704
641.477	3.09989
641.67	13.67975
641.863	11.90527
642.055	9.63825
642.248	9.40502
642.441	7.98518
642.633	10.31533
642.826	12.01044
643.018	12.98096
643.211	13.78007
643.403	13.49246
643.596	14.70392
643.788	15.17295
643.981	8.11357
644.173	11.18603
644.366	8.10175
644.558	4.89498
644.751	11.62626
644.943	5.29028
645.135	14.42078
645.328	14.71837
645.52	11.62489
645.712	12.00071
645.905	19.26052
646.097	6.47374
646.289	10.44706
646.482	15.10572
646.674	7.96636
646.866	12.4699
647.058	11.25967
647.251	6.75978
647.443	7.73627
647.635	8.76142
647.827	7.23695
648.019	6.51749
648.211	9.88811
648.404	10.6021
648.596	14.04833
648.788	10.43073
648.98	10.69698
649.172	10.8701
649.364	10.71891
649.556	4.97553
649.748	16.05003
649.94	6.81828
650.132	11.38573
650.324	7.05955
650.516	7.52709
650.708	12.88736
650.9	5.90137
651.092	8.5315
651.284	5.02911
651.476	6.12492
651.667	10.96259
651.859	13.75289
652.051	9.55404
652.243	10.10391
652.435	7.99286
652.627	10.96996
652.818	10.79309
653.01	5.28088
653.202	7.3232
653.394	9.08255
653.585	11.13508
653.777	24.06477
653.969	13.88594
654.16	13.92271
654.352	6.84427
654.544	10.12318
654.735	13.97119
654.927	10.45616
655.118	14.85235
655.31	13.18997
655.502	12.68812
655.693	8.1289
655.885	12.25616
656.076	14.94721
656.268	11.30019
656.459	14.38254
656.651	14.36841
656.842	8.69485
657.034	7.80502
657.225	12.76745
657.416	14.6559
657.608	14.4978
657.799	9.56903
657.99	12.01706
658.182	6.86642
658.373	7.17726
658.564	12.04573
658.756	9.58884
658.947	8.92693
659.138	6.08827
659.33	7.43358
659.521	6.79985
659.712	8.78625
659.903	8.48921
660.094	7.50921
660.286	5.10372
660.477	15.35542
660.668	11.31601
660.859	10.12678
661.05	6.34002
661.241	11.8322
661.432	11.88034
661.623	9.63006
661.814	9.00954
662.006	5.57017
662.197	11.86207
662.388	14.76574
662.579	11.39042
662.77	15.88125
662.96	20.0748
663.151	14.08639
663.342	5.58107
663.533	12.44399
663.724	10.50738
663.915	16.6279
664.106	11.27219
664.297	18.48875
664.488	14.01502
664.678	10.60342
664.869	14.00257
665.06	14.72712
665.251	12.685
665.442	13.81579
665.632	8.60328
665.823	19.37321
666.014	2.45608
666.204	14.45927
666.395	16.64803
666.586	21.86184
666.776	14.14857
666.967	18.93781
667.158	12.40282
667.348	18.4408
667.539	8.33365
667.729	14.79856
667.92	8.88924
668.111	15.97836
668.301	14.3641
668.492	9.93148
668.682	11.01953
668.873	10.61683
669.063	7.48098
669.253	11.58193
669.444	15.83696
669.634	11.17486
669.825	18.84557
670.015	15.14844
670.206	9.82787
670.396	21.67163
670.586	11.48708
670.777	14.10511
670.967	4.5888
671.157	12.01809
671.347	9.98693
671.538	19.01895
671.728	14.14966
671.918	19.72707
672.108	16.73368
672.299	12.87538
672.489	13.26195
672.679	10.80875
672.869	15.69078
673.059	19.39806
673.249	14.94405
673.44	10.6333
673.63	11.77071
673.82	16.80595
674.01	9.78309
674.2	15.19752
674.39	24.90688
674.58	15.00232
674.77	13.50613
674.96	13.57345
675.15	29.70766
675.34	17.06051
675.53	13.57987
675.72	11.26035
675.91	7.9952
676.099	20.34301
676.289	22.54878
676.479	17.52
676.669	11.60441
676.859	16.00257
677.049	8.94494
677.238	13.30217
677.428	19.75595
677.618	14.63884
677.808	17.57271
677.997	15.09768
678.187	8.69059
678.377	12.68066
678.567	10.63373
678.756	10.78915
678.946	11.23263
679.136	7.10771
679.325	9.20826
679.515	8.81027
679.704	6.73838
679.894	14.27734
680.084	12.9219
680.273	17.20988
680.463	7.36438
680.652	8.86364
680.842	11.50554
681.031	15.65068
681.221	8.02065
681.41	14.23287
681.6	11.74849
681.789	15.30754
681.978	17.89118
682.168	14.02375
682.357	15.01592
682.547	16.6756
682.736	14.09632
682.925	18.92567
683.115	18.78467
683.304	17.37162
683.493	15.62776
683.682	16.44871
683.872	15.73248
684.061	19.54018
684.25	17.48597
684.439	22.79617
684.629	16.91368
684.818	28.77943
685.007	14.52465
685.196	12.9732
685.385	21.74792
685.574	16.65897
685.763	16.22248
685.952	15.53624
686.142	9.86832
686.331	21.89412
686.52	6.83185
686.709	22.16734
686.898	22.23248
687.087	18.11241
687.276	22.09088
687.465	19.13569
687.654	12.72743
687.842	22.67217
688.031	8.55497
688.22	21.41179
688.409	16.16317
688.598	16.11096
688.787	27.17897
688.976	15.92996
689.165	24.65705
689.353	13.40356
689.542	18.09072
689.731	20.03367
689.92	25.04962
690.108	21.64425
690.297	14.4461
690.486	17.19395
690.675	20.63527
690.863	26.00173
691.052	24.26738
691.241	19.25303
691.429	18.99357
691.618	23.57555
691.806	11.10499
691.995	15.79842
692.184	17.17357
692.372	14.64226
692.561	17.58466
692.749	17.12539
692.938	29.58783
693.126	20.86107
693.315	15.50803
693.503	20.76023
693.692	21.63793
693.88	22.44999
694.068	28.74548
694.257	17.20492
694.445	19.89403
694.634	7.67998
694.822	23.99411
695.01	25.10127
695.199	25.85145
695.387	26.44481
695.575	24.64254
695.763	17.76718
695.952	16.72953
696.14	10.51044
696.328	15.17118
696.516	18.37693
696.705	19.22738
696.893	18.33611
697.081	8.42107
697.269	20.16329
697.457	11.48117
697.645	9.70113
697.833	19.08084
698.021	10.82332
698.21	12.36328
698.398	13.92046
698.586	9.09762
698.774	8.46662
698.962	13.26422
699.15	9.23481
699.338	7.91292
699.526	16.61947
699.714	11.79984
699.901	13.23126
700.089	20.42609
700.277	12.44089
700.465	15.83634
700.653	21.02883
700.841	19.48273
701.029	13.31816
701.217	24.39934
701.404	18.9192
701.592	24.20309
701.78	28.9485
701.968	15.93909
702.155	16.9958
702.343	10.72003
702.531	26.32871
702.718	20.90392
702.906	16.81188
703.094	15.38213
703.281	25.54371
703.469	16.30248
703.657	25.39919
703.844	38.96691
704.032	29.8259
704.219	15.998
704.407	22.20123
704.595	28.25721
704.782	21.65629
704.97	16.8966
705.157	17.19108
705.345	30.08615
705.532	35.68158
705.719	22.84986
705.907	29.62379
706.094	21.04473
706.282	32.36119
706.469	18.74298
706.656	21.29406
706.844	18.69494
707.031	26.01982
707.218	20.7901
707.406	30.3068
707.593	27.53996
707.78	25.47465
707.968	20.8481
708.155	15.61045
708.342	25.64492
708.529	25.96088
708.716	22.09878
708.904	31.4047
709.091	26.21669
709.278	14.90449
709.465	31.35223
709.652	33.98833
709.839	29.64531
710.026	23.46424
710.213	12.45365
710.4	23.79196
710.587	27.27676
710.774	29.28486
710.961	29.55219
711.148	22.96918
711.335	29.27764
711.522	21.26737
711.709	24.13886
711.896	35.42122
712.083	28.45604
712.27	16.73523
712.457	23.53444
712.644	13.36221
712.831	36.2755
713.017	24.09045
713.204	28.31371
713.391	17.41988
713.578	31.60857
713.765	33.50346
713.951	26.62829
714.138	46.04246
714.325	27.536
714.512	23.49733
714.698	18.74525
714.885	33.34394
715.072	25.32281
715.258	25.65745
715.445	21.01027
715.631	32.70841
715.818	7.63568
716.005	19.82665
716.191	27.61951
716.378	23.62331
716.564	29.85137
716.751	18.56513
716.937	21.18644
717.124	33.14569
717.31	20.4757
717.497	35.45226
717.683	20.11193
717.869	43.31721
718.056	20.65535
718.242	31.02808
718.429	27.00611
718.615	18.57718
718.801	26.53078
718.988	32.44011
719.174	30.36835
719.36	25.65969
719.547	37.20829
719.733	29.18884
719.919	30.03718
720.105	32.07526
720.291	26.49522
720.478	29.28795
720.664	24.24393
720.85	23.4824
721.036	49.72042
721.222	40.27004
721.408	26.21972
721.595	45.34658
721.781	41.01429
721.967	38.22126
722.153	40.82144
722.339	31.97788
722.525	32.37182
722.711	21.20281
722.897	16.6654
723.083	26.52306
723.269	37.75211
723.455	49.56827
723.641	52.70137
723.827	31.58851
724.012	33.16363
724.198	26.61174
724.384	40.2404
724.57	32.46423
724.756	17.48652
724.942	14.12319
725.127	37.45292
725.313	40.72218
725.499	40.90051
725.685	45.71237
725.87	33.47967
726.056	22.21134
726.242	40.44384
726.428	17.77352
726.613	36.70194
726.799	27.29929
726.985	21.26066
727.17	17.99343
727.356	45.2312
727.541	22.45084
727.727	28.60844
727.913	36.03609
728.098	26.22953
728.284	36.6445
728.469	19.43924
728.655	22.839
728.84	36.82217
729.026	36.58105
729.211	37.83124
729.397	31.74298
729.582	36.33002
729.767	28.7764
729.953	32.5857
730.138	39.59834
730.323	11.38234
730.509	19.88362
730.694	43.55529
730.879	34.55821
731.065	30.44487
731.25	49.86485
731.435	36.27922
731.621	17.46069
731.806	24.19196
731.991	32.54778
732.176	18.86555
732.361	41.53082
732.547	31.6847
732.732	17.1981
732.917	50.42262
733.102	20.11667
733.287	25.97879
733.472	30.29362
733.657	31.18282
733.842	18.23381
734.027	28.96245
734.212	29.77224
734.397	26.00477
734.582	31.74949
734.767	39.56249
734.952	45.76415
735.137	9.91854
735.322	45.94229
735.507	35.05954
735.692	34.16899
735.877	53.66883
736.062	49.15613
736.247	35.88344
736.431	32.00655
736.616	45.23714
736.801	36.62654
736.986	31.98332
737.171	22.99029
737.355	18.70353
737.54	45.44787
737.725	33.77786
737.909	59.99825
738.094	28.86349
738.279	40.22137
738.463	31.57698
738.648	39.89408
738.833	36.60512
739.017	52.69507
739.202	29.79344
739.386	33.66738
739.571	24.80183
739.756	41.65502
739.94	33.43827
740.125	43.75399
740.309	28.68322
740.494	43.02228
740.678	36.0384
740.863	39.58464
741.047	36.03029
741.231	47.17871
741.416	26.75413
741.6	51.2018
741.785	27.70403
741.969	42.35346
742.153	48.35995
742.338	12.61341
742.522	33.98864
742.706	42.9173
742.89	21.84807
743.075	37.1557
743.259	49.88016
743.443	45.13455
743.627	46.85902
743.812	60.16142
743.996	19.94865
744.18	31.44557
744.364	30.01855
744.548	64.89468
744.732	34.48041
744.916	43.13174
745.1	42.28907
745.285	34.45165
745.469	38.901
745.653	55.6083
745.837	22.04404
746.021	62.40331
746.205	48.53983
746.389	39.79012
746.573	31.70269
746.757	54.59504
746.94	30.2286
747.124	50.31372
747.308	24.74949
747.492	50.05109
747.676	30.52639
747.86	64.47549
748.044	31.15475
748.227	18.35952
748.411	78.27333
748.595	40.98153
748.779	27.57218
748.963	43.28898
749.146	38.7673
749.33	29.87592
749.514	27.27729
749.697	52.45442
749.881	30.78786
750.065	26.77535
750.248	38.14966
750.432	67.34455
750.616	39.23792
750.799	24.57846
750.983	63.72553
751.166	69.49417
751.35	21.86736
751.533	51.20896
751.717	54.46119
751.9	57.55617
752.084	35.14667
752.267	25.58263
752.451	27.01366
752.634	39.69983
752.818	43.49433
753.001	48.87042
753.184	51.74665
753.368	41.64987
753.551	3.72381
753.734	31.6308
753.918	63.4625
754.101	32.08561
754.284	49.01741
754.467	33.63547
754.651	29.90562
754.834	31.72353
755.017	53.69387
755.2	50.05081
755.384	25.82826
755.567	45.89482
755.75	51.22922
755.933	37.26809
756.116	41.49019
756.299	34.39857
756.482	27.65462
756.665	46.20305
756.848	39.30515
757.032	46.36441
757.215	22.39264
757.398	30.24196
757.581	31.18346
757.764	71.67625
757.947	40.74545
758.129	54.61053
758.312	7.10077
758.495	35.22707
758.678	36.676
758.861	39.29888
759.044	64.90128
759.227	29.61162
759.41	27.90478
759.592	45.59014
759.775	38.9382
759.958	52.85034
760.141	23.87108
760.324	68.96954
760.506	60.17018
760.689	52.37048
760.872	71.12644
761.054	47.37729
761.237	36.97255
761.42	45.87654
761.602	51.15913
761.785	43.50493
761.968	50.88263
762.15	63.98884
762.333	37.44176
762.515	42.69256
762.698	31.041
762.88	45.27954
763.063	40.78214
763.245	45.08306
763.428	25.89527
763.61	29.89026
763.793	21.33032
763.975	38.36315
764.158	30.7926
764.34	28.88727
764.522	23.83388
764.705	33.09588
764.887	54.06192
765.069	19.72787
765.252	48.10709
765.434	50.29007
765.616	40.50304
765.799	32.81615
765.981	50.30377
766.163	29.90041
766.345	52.67766
766.528	33.59165
766.71	12.38272
766.892	40.68981
767.074	57.28375
767.256	37.74899
767.438	64.63614
767.62	45.2142
767.802	72.69655
767.985	51.96526
768.167	72.23104
768.349	32.96991
768.531	50.94208
768.713	46.06966
768.895	55.41482
769.077	51.15559
769.259	83.56051
769.441	114.70775
769.623	56.47271
769.804	67.77305
769.986	67.62828
770.168	85.51806
770.35	102.01697
770.532	70.88897
770.714	78.24272
770.896	83.83172
771.077	27.99568
771.259	79.41772
771.441	66.19211
771.623	84.07789
771.804	110.25028
771.986	28.35312
772.168	49.80732
772.35	84.92826
772.531	117.85895
772.713	60.44974
772.894	89.36878
773.076	60.75642
773.258	51.27136
773.439	90.24848
773.621	99.17107
773.802	38.55813
773.984	51.33707
774.166	71.24831
774.347	98.78009
774.529	85.6049
774.71	20.86205
774.891	59.40533
775.073	56.12361
775.254	95.89899
775.436	52.15839
775.617	107.14228
775.799	58.8059
775.98	100.69887
776.161	107.88514
776.343	103.86079
776.524	61.01585
776.705	56.18071
776.886	27.47145
777.068	73.38183
777.249	127.90909
777.43	114.92717
777.611	42.08234
777.793	60.01524
777.974	104.85099
778.155	57.97877
778.336	49.76647
778.517	113.84024
778.698	51.96735
778.879	23.32908
779.061	13.24924
779.242	74.66408
779.423	75.56735
779.604	49.18795
779.785	59.89948
779.966	68.76517
780.147	91.80466
780.328	89.5926
780.509	131.43204
780.69	83.27116
780.871	52.61692
781.051	36.41345
781.232	71.82747
781.413	71.70667
781.594	60.81205
781.775	54.52871
781.956	50.10538
782.137	29.87829
782.317	52.17713
782.498	71.55762
782.679	59.80372
782.86	69.3119
783.04	50.06016
783.221	73.33113
783.402	119.25273
783.583	68.12099
783.763	82.56331
783.944	59.13775
784.124	33.33493
784.305	109.89531
784.486	78.15013
784.666	65.52161
784.847	31.04141
785.027	131.50759
785.208	48.46538
785.388	54.51061
785.569	55.44629
785.749	59.30882
785.93	51.49675
786.11	29.88324
786.291	75.01875
786.471	72.17957
786.652	84.14434
786.832	63.1622
787.012	74.05092
787.193	39.64743
787.373	67.60983
787.553	53.50488
787.734	69.60988
787.914	55.03621
788.094	78.59685
788.275	70.71213
788.455	58.2604
788.635	36.59976
788.815	71.27253
788.995	41.81669
789.176	33.12995
789.356	49.00616
789.536	60.68223
789.716	78.91394
789.896	48.51173
790.076	55.89735
790.256	70.98868
790.436	19.62765
790.616	45.05909
790.796	72.97955
790.976	56.79134
791.156	53.92462
791.336	85.71332
791.516	74.05378
791.696	62.14223
791.876	31.81677
792.056	70.73252
792.236	87.1243
792.416	84.14645
792.596	76.5562
792.776	76.20111
792.956	78.86511
793.135	100.94743
793.315	40.00827
793.495	96.13116
793.675	79.38955
793.854	85.99718
794.034	87.65023
794.214	38.74478
794.394	79.9809
794.573	95.04864
794.753	67.43889
794.933	44.43007
795.112	68.78819
795.292	85.93891
795.472	109.38375
795.651	38.10654
795.831	64.07672
796.01	57.94347
796.19	59.77144
796.369	62.13406
796.549	76.89602
796.728	61.12809
796.908	35.26413
797.087	43.85214
797.267	60.23605
797.446	41.11651
797.626	75.32799
797.805	78.39331
797.984	46.26277
798.164	80.17938
798.343	44.35293
798.522	72.19957
798.702	69.28289
798.881	35.34736
799.06	62.79067
799.239	25.44416
799.419	46.9906
799.598	103.52876
799.777	80.04957
799.956	95.96274
800.136	57.84906
800.315	48.86112
800.494	74.77202
800.673	93.86677
800.852	82.63608
801.031	90.57471
801.21	81.45176
801.389	53.06081
801.568	70.95738
801.747	111.97105
801.926	64.7789
802.105	104.44716
802.284	55.46351
802.463	103.59464
802.642	68.42409
802.821	70.77841
803	97.57483
803.179	84.06119
803.358	100.07953
803.537	51.93979
803.716	73.14019
803.895	52.38404
804.073	63.0333
804.252	52.15818
804.431	76.22848
804.61	63.27996
804.789	92.76421
804.967	50.99269
805.146	54.01246
805.325	114.88273
805.503	78.02732
805.682	31.7789
805.861	135.00389
806.039	95.81664
806.218	50.1583
806.397	73.70562
806.575	73.58695
806.754	70.40062
806.932	45.62618
807.111	103.8535
807.289	92.21228
807.468	71.57519
807.646	92.8375
807.825	81.29148
808.003	74.23279
808.182	98.20903
808.36	74.20387
808.539	53.74159
808.717	104.45531
808.895	51.15276
809.074	73.57245
809.252	61.85744
809.43	88.35509
809.609	98.51384
809.787	103.11011
809.965	65.76399
810.144	71.32438
810.322	60.96887
810.5	82.17703
810.678	64.30336
810.856	125.75278
811.035	97.6961
811.213	89.62704
811.391	100.48277
811.569	76.14242
811.747	148.49924
811.925	98.56196
812.103	54.35335
812.281	64.94341
812.459	125.08203
812.637	119.1323
812.816	93.59856
812.994	121.41233
813.171	105.11524
813.349	84.83883
813.527	108.05666
813.705	108.90628
813.883	138.47131
814.061	100.80135
814.239	127.23483
814.417	130.10709
814.595	86.28024
814.773	81.78592
814.95	82.03203
815.128	85.11435
815.306	74.51746
815.484	67.1327
815.662	53.1369
815.839	44.99447
816.017	53.73105
816.195	101.59202
816.372	64.87134
816.55	94.87806
816.728	116.92793
816.905	68.28069
817.083	122.35842
817.261	71.52383
817.438	139.25983
817.616	131.88645
817.793	59.79073
817.971	95.61477
818.148	91.39339
818.326	114.83835
818.503	81.28481
818.681	114.31622
818.858	62.59618
819.036	75.60949
819.213	82.49776
819.391	53.82029
819.568	51.85648
819.745	49.07695
819.923	91.55549
820.1	57.52959
820.277	51.74164
820.455	60.49864
820.632	62.08872
820.809	64.85764
820.986	39.06368
821.164	31.51457
821.341	25.70797
821.518	37.89302
821.695	24.91777
821.872	22.1808
822.05	18.88059
822.227	12.85928
822.404	14.12523
822.581	18.33865
822.758	14.16196
822.935	14.21313
823.112	17.79811
823.289	12.83467
823.466	19.0694
823.643	17.48806
823.82	24.07381
823.997	20.40805
824.174	27.94926
824.351	40.01814
824.528	38.54825
824.705	33.15771
824.882	38.54521
825.059	52.44303
825.236	33.6554
825.412	34.60664
825.589	44.66345
825.766	64.70744
825.943	38.20954
826.12	46.55783
826.296	27.11257
826.473	36.51954
826.65	36.97055
826.827	45.94936
827.003	28.55546
827.18	32.37819
827.357	37.34312
827.533	33.59671
827.71	15.65989
827.887	28.31667
828.063	34.56514
828.24	29.66629
828.416	43.6549
828.593	35.72617
828.769	55.40284
828.946	63.2924
829.122	67.66038
829.299	62.9665
829.475	31.20743
829.652	58.63593
829.828	104.87023
830.005	60.14799
830.181	86.01925
830.357	58.53891
830.534	89.32651
830.71	65.64722
830.886	87.92646
831.063	88.31023
831.239	104.09
831.415	43.76757
831.592	105.06688
831.768	67.92701
831.944	48.15894
832.12	106.43036
832.296	95.26698
832.473	85.53553
832.649	57.27182
832.825	80.61625
833.001	45.04704
833.177	67.15839
833.353	59.81386
833.529	32.94565
833.705	49.17645
833.881	35.51223
834.058	32.86272
834.234	36.93716
834.41	37.36257
834.586	28.59481
834.761	38.50276
834.937	43.35716
835.113	46.0001
835.289	41.69128
835.465	53.48995
835.641	45.26226
835.817	55.56621
835.993	96.98747
836.169	45.08706
836.344	72.16025
836.52	79.98155
836.696	80.38803
836.872	57.82448
837.048	168.58505
837.223	61.16034
837.399	132.59293
837.575	106.72899
837.75	94.77169
837.926	132.87231
838.102	200.89996
838.277	163.40781
838.453	197.41988
838.628	192.89209
838.804	86.14187
838.98	200.5087
839.155	87.82562
839.331	124.29772
839.506	85.80131
839.682	91.28439
839.857	108.75613
840.033	128.49986
840.208	66.93747
840.384	29.5895
840.559	68.53236
840.734	102.45829
840.91	147.47119
841.085	93.73324
841.26	93.91016
841.436	78.30601
841.611	81.60695
841.786	130.44298
841.962	175.44372
842.137	110.96158
842.312	54.76865
842.487	88.77895
842.663	69.66001
842.838	83.99192
843.013	277.27232
843.188	138.816
843.363	111.31122
843.538	265.41386
843.714	254.17414
843.889	269.47549
844.064	247.74533
844.239	208.70126
844.414	270.83418
844.589	171.56832
844.764	301.12995
844.939	275.51594
845.114	376.49878
845.289	313.33836
845.464	354.55739
845.639	280.52731
845.814	145.75946
845.989	179.58661
846.163	185.14732
846.338	224.77818
846.513	316.42506
846.688	218.42654
846.863	210.62122
847.038	183.95172
847.212	222.51687
847.387	248.09329
847.562	231.48958
847.737	248.38831
847.911	101.73048
848.086	145.1618
848.261	417.49981
848.435	197.82526
848.61	304.30466
848.785	128.15841
848.959	275.57804
849.134	365.96981
849.308	495.18574
849.483	214.94469
849.658	318.43022
849.832	211.98606
850.007	161.28793
850.181	408.81741
850.356	160.28633
850.53	367.05644
850.705	152.39232
850.879	82.77804
851.053	226.46999
851.228	187.14275
851.402	270.76075
851.577	326.55447
851.751	314.34597
851.925	236.26075
852.099	102.47833
852.274	158.39439
852.448	200.93289
852.622	274.23973
852.797	218.03009
852.971	222.0858
853.145	249.60145
853.319	452.16844
853.493	348.55459
853.668	207.55213
853.842	389.97723
854.016	320.64557
854.19	410.66604
854.364	244.6284
854.538	269.26888
854.712	336.15946
854.886	244.20044
855.06	196.36959
855.234	74.87434
855.408	369.08966
855.582	328.10629
855.756	299.97929
855.93	383.59
856.104	257.92824
856.278	321.56023
856.452	240.46159
856.626	272.31543
856.8	450.89589
856.973	280.95698
857.147	274.2071
857.321	280.45663
857.495	341.58115
857.669	237.33458
857.842	217.68412
858.016	353.7921
858.19	147.56133
858.364	568.34882
858.537	207.55411
858.711	243.99316
858.885	194.95898
859.058	168.51055
859.232	98.92129
859.405	114.83903
859.579	329.38178
859.753	265.01047
859.926	173.30524
860.1	125.47977
860.273	225.09268
860.447	413.98308
860.62	207.94696
860.794	420.46863
860.967	240.42683
861.141	331.99873
861.314	465.35898
861.487	277.12746
861.661	328.50335
861.834	390.93349
862.008	298.25318
862.181	247.41735
862.354	262.10373
862.528	275.71226
862.701	178.33183
862.874	124.93799
863.047	198.01893
863.221	204.40572
863.394	92.06803
863.567	317.24399
863.74	66.30888
863.913	325.9471
864.087	285.08807
864.26	308.21774
864.433	215.02732
864.606	481.70713
864.779	228.30374
864.952	105.79556
865.125	183.05985
865.298	216.48776
865.471	243.83113
865.644	400.3834
865.817	327.23796
865.99	304.69679
866.163	371.21649
866.336	173.41974
866.509	217.43924
866.682	181.45035
866.855	335.39041
867.028	128.68177
867.2	280.31916
867.373	77.36143
867.546	234.30762
867.719	420.5464
867.892	249.44124
868.064	159.43826
868.237	257.89028
868.41	243.82742
868.583	132.03006
868.755	121.04391
868.928	193.74664
869.101	442.30905
869.273	315.12993
869.446	257.9392
869.619	350.91167
869.791	208.42989
869.964	344.55335
870.136	308.44473
870.309	243.37024
870.481	237.81245
870.654	129.24217
870.826	241.00517
870.999	192.84368
871.171	296.12174
871.344	177.44187
871.516	223.30313
871.689	154.69993
871.861	253.42809
872.033	175.78494
872.206	211.16787
872.378	311.15383
872.55	204.70587
872.723	127.47527
872.895	191.54115
873.067	322.14671
873.24	298.22981
873.412	181.39158
873.584	206.94347
873.756	187.80457
873.928	250.98125
874.101	249.78951
874.273	263.6664
874.445	97.38454
874.617	130.82263
874.789	219.62057
874.961	178.74031
875.133	267.72204
875.305	219.92455
875.477	141.10517
875.649	115.06837
875.821	148.81416
875.993	351.27818
876.165	148.1414
876.337	232.60341
876.509	217.4915
876.681	230.37889
876.853	251.81328
877.025	240.23133
877.197	155.07808
877.369	143.58295
877.541	274.18225
877.712	69.50628
877.884	123.92941
878.056	235.6358
878.228	127.181
878.4	257.09001
878.571	133.87936
878.743	88.28067
878.915	198.56218
879.086	119.09904
879.258	151.18906
879.43	127.46165
879.601	111.25863
879.773	116.9046
879.945	28.57354
880.116	46.34088
880.288	28.91345
880.459	32.88378
880.631	21.52113
880.802	28.40049
880.974	26.31992
881.145	16.31436
881.317	23.56021
881.488	16.83113
881.66	19.3663
881.831	17.29683
882.002	28.01525
882.174	17.93494
882.345	26.05778
882.517	11.84469
882.688	36.45752
882.859	28.19983
883.03	49.79437
883.202	49.91206
883.373	41.44517
883.544	44.31483
883.715	76.72831
883.887	67.81757
884.058	55.02149
884.229	79.43039
884.4	81.09921
884.571	93.61124
884.742	72.00787
884.914	79.30746
885.085	119.04894
885.256	159.09963
885.427	131.454
885.598	147.23821
885.769	151.60865
885.94	156.43029
886.111	97.1214
886.282	179.7714
886.453	137.45218
886.624	104.36279
886.795	188.91294
886.966	144.05094
887.136	196.05179
887.307	137.67419
887.478	250.75256
887.649	216.55488
887.82	214.45034
887.991	181.01441
888.161	252.86783
888.332	205.44654
888.503	117.24235
888.674	296.34306
888.844	336.17944
889.015	244.8988
889.186	112.99925
889.356	312.28288
889.527	106.00345
889.698	456.48531
889.868	168.34008
890.039	229.33539
890.209	199.05873
890.38	256.46759
890.551	218.78978
890.721	307.5788
890.892	261.82596
891.062	202.95915
891.233	245.51639
891.403	172.40935
891.574	141.22445
891.744	185.17802
891.914	198.14287
892.085	182.33174
892.255	66.64042
892.425	296.08129
892.596	216.24531
892.766	226.86261
892.936	269.84544
893.107	240.74299
893.277	134.25978
893.447	101.27442
893.618	67.69793
893.788	152.62921
893.958	83.90625
894.128	76.2577
894.298	85.20814
894.468	122.85309
894.639	53.88816
894.809	35.3837
894.979	60.143
895.149	73.52925
895.319	63.33125
895.489	81.70992
895.659	125.92013
895.829	79.87818
895.999	86.17539
896.169	67.11596
896.339	96.92332
896.509	185.51381
896.679	198.75983
896.849	198.92058
897.019	268.81965
897.189	192.62359
897.358	164.20144
897.528	276.30219
897.698	102.01797
897.868	226.2613
898.038	400.09465
898.208	359.76702
898.377	103.11466
898.547	331.43373
898.717	465.78733
898.886	232.12994
899.056	405.95443
899.226	463.60466
899.395	297.59271
899.565	460.27859
899.735	300.04757
899.904	463.96049
900.074	377.09544
900.244	176.98464
900.413	597.54188
900.583	132.89263
900.752	271.92868
900.922	396.70718
901.091	28.48327
901.261	328.84705
901.43	340.30464
901.599	309.65026
901.769	700.46214
901.938	451.38258
902.108	345.41637
902.277	464.56722
902.446	116.64009
902.616	167.77582
902.785	187.16726
902.954	364.29781
903.124	212.97783
903.293	156.46688
903.462	91.78368
903.631	136.30763
903.801	101.13167
903.97	54.03511
904.139	88.78429
904.308	67.85387
904.477	55.69247
904.646	34.0322
904.816	56.43619
904.985	86.0387
905.154	143.37684
