Data from WindowProjectSample_Transmission__8__00008__07052597650756175.txt Node

Date: Mon May 05 16:46:11 EDT 2025
User: jessi
Spectrometer: SR400872
Trigger mode: 0
Integration Time (sec): 5.000010E-1
Scans to average: 20
Electric dark correction enabled: true
Nonlinearity correction enabled: true
Boxcar width: 0
XAxis mode: Wavelengths
Number of Pixels in Spectrum: 3648
>>>>>Begin Spectral Data<<<<<
184.909	19793.50698
185.132	-4820.2483
185.355	-2924.9693
185.578	-16959.0833
185.801	1819.12687
186.024	9947.55797
186.247	-1885.32181
186.47	1003.8297
186.693	163.1417
186.916	315.62951
187.139	-3409.42771
187.362	3307.11563
187.585	3707.6183
187.808	3622.55513
188.031	-17.70959
188.254	-45659.10462
188.476	-1637.78914
188.699	10912.74446
188.922	5475.09351
189.145	-29170.0142
189.368	-4335.83953
189.591	-6821.98158
189.813	9890.68435
190.036	-143298.69756
190.259	-3514.00855
190.482	-17339.59108
190.705	14881.23472
190.927	-7085.57138
191.15	29023.82134
191.373	9707.58806
191.595	-27984.69929
191.818	-8669.81439
192.041	-63591.88882
192.263	-10356.74783
192.486	-5818.55742
192.709	-8749.39338
192.931	20112.56415
193.154	-53801.15955
193.377	-7117.31364
193.599	-10798.5744
193.822	-39243.71068
194.044	-7387.36432
194.267	5783.38221
194.489	-3557.54372
194.712	-107267.85061
194.934	-59549.341
195.157	-4664.58874
195.379	7137.98079
195.602	-22901.39408
195.824	-3861.45273
196.047	-40958.99046
196.269	5756.11581
196.492	-21639.08592
196.714	94850.79429
196.936	-22626.50802
197.159	-3910.19282
197.381	6217.83376
197.604	5636.90994
197.826	33392.78148
198.048	-40336.1846
198.271	-8595.46091
198.493	21350.99777
198.715	7068.59619
198.938	-4277.28672
199.16	26746.0491
199.382	-230832.48223
199.604	13039.16385
199.827	-3685.77872
200.049	-11276.81485
200.271	47547.84991
200.493	3585.18485
200.715	-99113.2166
200.938	-12343.37202
201.16	-10324.86116
201.382	75610.98552
201.604	6185.19188
201.826	6750.1239
202.048	-7633.47562
202.27	-6880.94838
202.492	-101594.90566
202.715	10627.17936
202.937	-13641.82263
203.159	-17601.65319
203.381	5819.09048
203.603	21177.73377
203.825	30630.55016
204.047	7308.7258
204.269	-11195.33638
204.491	7581.44872
204.713	17228.67407
204.935	-1535705.13029
205.156	4798.01149
205.378	-11791.21743
205.6	5345.59653
205.822	315351.28984
206.044	-9672.57479
206.266	5510.83495
206.488	24462.80131
206.71	-13509.96111
206.932	4261.61697
207.153	32332.85339
207.375	-24753.55407
207.597	-74952.37917
207.819	-8147.40272
208.041	6108.20393
208.262	3097.54897
208.484	3321.22819
208.706	-3731.69736
208.927	-4527.58439
209.149	2633.76368
209.371	-7917.25861
209.593	-4583.59303
209.814	-4464.43823
210.036	5042.63445
210.258	-3862.90571
210.479	9692.57061
210.701	8137.8381
210.922	11697.41656
211.144	-18580.08361
211.366	6935.55926
211.587	49298.80404
211.809	-24021.51025
212.03	9378.57313
212.252	3859.72278
212.473	9424.94702
212.695	-44298.01092
212.916	11323.27121
213.138	-5327.78392
213.359	10790.30628
213.581	20643.25351
213.802	-6210.92207
214.024	3553.1498
214.245	10665.64577
214.466	35389.42797
214.688	-10062.92907
214.909	-5537.67059
215.131	-6015.60039
215.352	-14954.99628
215.573	31532.22656
215.795	14989.51015
216.016	16136.75619
216.237	5070.75772
216.459	13346.41799
216.68	5395.78075
216.901	16567.38803
217.122	-21347.53871
217.344	-38213.24968
217.565	8656.84852
217.786	22157.6677
218.007	119823.50251
218.228	-8029.57839
218.45	19920.34782
218.671	5863.98806
218.892	171383.25694
219.113	7499.82835
219.334	8615.13103
219.555	38581.32808
219.776	11205.01847
219.997	62075.27629
220.219	16359.6255
220.44	-64198.36237
220.661	3240.34048
220.882	5988.89414
221.103	-9064.48987
221.324	12452.41468
221.545	8454.02696
221.766	-34260.26855
221.987	8377.7808
222.208	12761.26357
222.429	13634.44236
222.65	14290.89017
222.87	214788.02199
223.091	4897.01634
223.312	5312.79348
223.533	9395.72003
223.754	5542.44422
223.975	7186.49727
224.196	15868.05286
224.417	8292.25368
224.637	7957.5869
224.858	8803.77857
225.079	10238.26369
225.3	6387.34082
225.521	10613.24611
225.741	5781.35881
225.962	5002.79275
226.183	4504.78877
226.404	4579.01657
226.624	4520.32477
226.845	5981.76574
227.066	4617.88364
227.286	3888.61537
227.507	3521.87409
227.728	3386.91514
227.948	3633.71135
228.169	2854.82482
228.389	2980.07185
228.61	2516.98973
228.831	2521.08728
229.051	2261.74265
229.272	2226.85881
229.492	2143.19654
229.713	2083.86383
229.933	2033.3418
230.154	2124.03565
230.374	2127.27495
230.595	2194.86467
230.815	2203.60327
231.036	2299.21687
231.256	2314.71531
231.477	2444.78893
231.697	2513.11574
231.917	2527.20769
232.138	2580.96984
232.358	2619.10827
232.579	2797.71738
232.799	2563.5975
233.019	2929.79308
233.24	2831.82231
233.46	2540.55484
233.68	2732.91613
233.901	2632.50391
234.121	2654.27838
234.341	2466.72786
234.561	2410.61631
234.782	2393.94241
235.002	2439.62684
235.222	2301.87942
235.442	2373.86234
235.662	2397.01427
235.883	2327.34735
236.103	2291.62571
236.323	2373.7883
236.543	2408.42579
236.763	2449.09263
236.983	2505.12916
237.203	2440.24581
237.423	2414.81402
237.643	2504.28547
237.864	2519.96846
238.084	2387.27862
238.304	2348.30922
238.524	2573.45872
238.744	2333.88761
238.964	2511.82957
239.184	2464.48998
239.404	2351.16383
239.624	2203.29576
239.843	2230.28839
240.063	2047.55585
240.283	2081.57691
240.503	1937.4323
240.723	1928.71155
240.943	1838.16317
241.163	1806.80938
241.383	1720.62121
241.603	1676.15472
241.822	1505.62498
242.042	1359.03128
242.262	1166.26921
242.482	1079.09366
242.702	993.87136
242.921	984.41286
243.141	934.43906
243.361	952.54409
243.581	971.05262
243.8	1066.06431
244.02	1098.1629
244.24	1213.43715
244.459	1355.34609
244.679	1541.1276
244.899	1648.89028
245.118	1705.87554
245.338	1663.2179
245.558	1673.12595
245.777	1523.91678
245.997	1346.81702
246.216	1099.70508
246.436	909.7515
246.655	747.57392
246.875	617.18382
247.094	538.59683
247.314	487.4436
247.533	468.03815
247.753	455.07226
247.972	442.1843
248.192	443.68283
248.411	455.87414
248.631	476.53834
248.85	529.0765
249.07	599.9466
249.289	687.06348
249.508	789.95883
249.728	852.28695
249.947	979.61645
250.166	1065.69692
250.386	1213.11259
250.605	1318.72952
250.824	1453.40901
251.044	1500.9664
251.263	1489.2162
251.482	1388.19214
251.701	1245.09295
251.921	1121.26199
252.14	1007.5857
252.359	945.50658
252.578	910.81878
252.798	892.35246
253.017	898.49332
253.236	939.97346
253.455	966.07881
253.674	1034.37192
253.893	1143.01357
254.112	1333.2299
254.331	1509.80264
254.551	1625.12638
254.77	1639.38652
254.989	1655.09434
255.208	1687.15167
255.427	1664.89416
255.646	1716.94405
255.865	1675.12553
256.084	1651.36029
256.303	1638.88108
256.522	1657.42845
256.741	1610.58842
256.96	1569.45535
257.179	1436.06165
257.397	1390.92071
257.616	1311.62031
257.835	1229.53094
258.054	1112.71302
258.273	1022.54333
258.492	918.34844
258.711	815.26405
258.93	709.07983
259.148	616.63736
259.367	518.32156
259.586	444.19608
259.805	379.14647
260.023	350.22041
260.242	321.67488
260.461	311.11708
260.68	307.06273
260.898	315.92059
261.117	324.59757
261.336	357.02427
261.554	383.19207
261.773	442.02074
261.992	508.01547
262.21	587.47717
262.429	657.22825
262.648	714.60772
262.866	758.843
263.085	785.61831
263.303	798.19347
263.522	826.0137
263.74	839.57755
263.959	869.35471
264.178	914.65819
264.396	945.47229
264.615	968.23985
264.833	1026.8558
265.051	1005.58765
265.27	1001.35801
265.488	955.60484
265.707	931.42118
265.925	857.20652
266.144	812.34398
266.362	750.53108
266.58	720.85242
266.799	673.43457
267.017	635.94084
267.235	611.69266
267.454	598.72483
267.672	579.97209
267.89	582.06088
268.109	567.45831
268.327	574.31817
268.545	584.64345
268.763	596.0164
268.982	609.19365
269.2	620.48317
269.418	617.86192
269.636	623.0866
269.854	628.19894
270.073	631.55362
270.291	608.67038
270.509	604.81644
270.727	574.15536
270.945	548.92009
271.163	510.36596
271.381	497.2464
271.599	476.73898
271.817	459.54678
272.036	435.78602
272.254	425.25575
272.472	406.25688
272.69	396.68817
272.908	385.32277
273.126	393.14285
273.344	401.81371
273.562	412.95552
273.779	413.63836
273.997	423.34368
274.215	442.59031
274.433	451.66391
274.651	472.68308
274.869	496.36466
275.087	508.18611
275.305	516.15415
275.523	516.55789
275.74	526.10437
275.958	529.68673
276.176	523.82999
276.394	509.88044
276.612	511.65356
276.829	501.05253
277.047	503.97944
277.265	506.49897
277.483	513.98918
277.7	511.61793
277.918	516.70805
278.136	521.94928
278.353	530.75599
278.571	525.95429
278.789	532.89929
279.006	543.54812
279.224	532.64374
279.442	525.10771
279.659	518.53943
279.877	504.5564
280.094	499.98055
280.312	491.57747
280.529	480.55156
280.747	459.79749
280.964	450.37624
281.182	431.13615
281.399	430.27016
281.617	405.82538
281.834	398.90945
282.052	388.89136
282.269	379.59252
282.487	369.47299
282.704	366.20459
282.921	364.8649
283.139	363.82451
283.356	364.61577
283.574	361.85775
283.791	362.28681
284.008	348.69836
284.226	348.3432
284.443	345.79826
284.66	329.87706
284.877	319.36047
285.095	300.53884
285.312	287.25687
285.529	272.61521
285.746	260.66595
285.964	256.92838
286.181	253.38859
286.398	250.71789
286.615	250.74315
286.832	254.21195
287.05	260.3291
287.267	263.44836
287.484	278.09753
287.701	290.89198
287.918	302.12521
288.135	305.03782
288.352	315.2601
288.569	319.50161
288.786	321.01931
289.003	316.94548
289.22	311.49052
289.437	303.73753
289.654	295.96917
289.871	282.4625
290.088	276.55251
290.305	267.86538
290.522	263.13009
290.739	266.72242
290.956	265.25401
291.173	264.60728
291.39	268.62859
291.607	272.81914
291.824	278.22386
292.04	289.4533
292.257	299.47842
292.474	311.19762
292.691	324.20172
292.908	325.49269
293.125	329.51114
293.341	330.1535
293.558	327.99338
293.775	316.53489
293.992	309.74214
294.208	300.1456
294.425	295.32483
294.642	286.79159
294.858	282.86065
295.075	275.5665
295.292	273.54083
295.508	261.77981
295.725	255.43229
295.942	243.72017
296.158	236.52749
296.375	224.5761
296.591	213.40196
296.808	199.41224
297.024	188.82204
297.241	180.51232
297.458	175.60074
297.674	172.70023
297.891	174.37403
298.107	175.35201
298.323	178.37585
298.54	182.41797
298.756	192.27818
298.973	202.73158
299.189	211.17583
299.406	225.53094
299.622	232.89337
299.838	243.3751
300.055	244.76525
300.271	254.53556
300.487	254.53849
300.704	255.57475
300.92	252.51568
301.136	253.76946
301.353	259.43359
301.569	259.74242
301.785	256.16132
302.001	258.45568
302.218	258.36411
302.434	263.92606
302.65	265.26009
302.866	260.05399
303.083	262.67859
303.299	265.86978
303.515	262.22694
303.731	257.87603
303.947	255.2448
304.163	254.62472
304.379	253.503
304.595	250.64698
304.812	252.44291
305.028	253.76256
305.244	255.24486
305.46	260.10065
305.676	262.59311
305.892	268.89019
306.108	271.765
306.324	275.82085
306.54	280.06126
306.756	283.08326
306.972	288.03995
307.187	282.66996
307.403	284.19499
307.619	277.49587
307.835	273.55882
308.051	273.49879
308.267	266.12551
308.483	259.15249
308.699	248.0887
308.914	242.44929
309.13	233.5302
309.346	225.38992
309.562	217.87975
309.778	214.00702
309.993	208.38355
310.209	205.08737
310.425	199.46544
310.641	195.99225
310.856	192.23366
311.072	185.67645
311.288	184.79403
311.503	180.90481
311.719	182.33619
311.935	183.24415
312.15	185.38245
312.366	188.89692
312.581	195.34896
312.797	201.47747
313.013	212.22222
313.228	223.96749
313.444	230.85227
313.659	245.65627
313.875	254.12787
314.09	263.91331
314.306	262.19958
314.521	260.67427
314.737	262.49922
314.952	265.31098
315.168	263.01572
315.383	261.84038
315.599	268.64585
315.814	266.05041
316.029	270.63412
316.245	275.94065
316.46	275.15304
316.675	280.09864
316.891	282.25329
317.106	283.45991
317.321	288.38843
317.537	287.53098
317.752	292.99918
317.967	290.35868
318.183	291.45996
318.398	290.69709
318.613	292.37152
318.828	300.03307
319.043	298.16271
319.259	297.40616
319.474	295.26516
319.689	295.18219
319.904	293.79386
320.119	298.71506
320.334	299.947
320.549	302.23218
320.765	306.1517
320.98	310.57259
321.195	316.14255
321.41	314.65978
321.625	319.04329
321.84	316.41428
322.055	317.21609
322.27	307.94746
322.485	307.63216
322.7	302.92314
322.915	296.11139
323.13	289.37885
323.345	278.42356
323.56	272.76196
323.775	262.94322
323.989	261.04756
324.204	255.23995
324.419	251.76819
324.634	248.69172
324.849	244.82508
325.064	249.3048
325.279	243.65438
325.493	247.30886
325.708	249.42795
325.923	245.23233
326.138	247.20806
326.352	247.08266
326.567	246.10508
326.782	247.6893
326.997	245.21676
327.211	248.23886
327.426	252.78374
327.641	254.82126
327.855	255.41671
328.07	266.8896
328.285	272.5452
328.499	278.30874
328.714	284.88833
328.928	287.23751
329.143	290.57865
329.358	292.8113
329.572	293.60634
329.787	293.18425
330.001	295.53504
330.216	295.75232
330.43	297.05787
330.645	293.70598
330.859	293.3914
331.074	293.05269
331.288	293.57076
331.503	292.87208
331.717	290.73266
331.931	285.61262
332.146	283.74776
332.36	285.863
332.575	277.61817
332.789	277.55308
333.003	279.50058
333.218	277.46018
333.432	278.37322
333.646	283.00837
333.86	285.69079
334.075	291.15228
334.289	297.03203
334.503	301.04845
334.717	303.33698
334.932	305.60897
335.146	296.57775
335.36	295.28775
335.574	287.82291
335.788	285.08464
336.003	283.46941
336.217	280.03424
336.431	270.14611
336.645	262.60351
336.859	257.55326
337.073	254.47297
337.287	250.52832
337.501	245.16021
337.715	241.42211
337.929	233.55361
338.143	228.52234
338.357	229.72117
338.571	227.43654
338.785	228.52022
338.999	232.44371
339.213	238.21758
339.427	241.90761
339.641	247.81704
339.855	249.891
340.069	253.59013
340.283	251.72289
340.497	254.98988
340.711	254.46559
340.924	254.32047
341.138	246.5924
341.352	245.52858
341.566	241.5522
341.78	242.09252
341.993	241.99543
342.207	239.52878
342.421	241.0903
342.635	238.29116
342.848	240.43983
343.062	241.14901
343.276	242.81707
343.49	243.54969
343.703	240.87233
343.917	235.03488
344.131	237.86361
344.344	232.98287
344.558	227.28693
344.771	225.38382
344.985	221.43267
345.199	219.04355
345.412	214.8905
345.626	217.55275
345.839	214.0338
346.053	218.75545
346.266	219.65224
346.48	221.09094
346.693	222.83114
346.907	232.90256
347.12	230.90606
347.334	239.39387
347.547	243.2141
347.76	250.7701
347.974	251.51727
348.187	255.73971
348.401	260.53866
348.614	259.02516
348.827	259.00015
349.041	254.36308
349.254	250.10843
349.467	252.53131
349.681	245.34424
349.894	243.56155
350.107	236.88232
350.32	239.3589
350.534	239.0581
350.747	234.68454
350.96	235.75579
351.173	234.74381
351.386	238.26987
351.6	241.06896
351.813	243.10466
352.026	245.1847
352.239	244.84691
352.452	243.88006
352.665	244.40274
352.878	239.21564
353.092	237.4196
353.305	235.51116
353.518	234.40044
353.731	228.90211
353.944	230.65935
354.157	229.02101
354.37	221.42039
354.583	224.78743
354.796	215.29654
355.009	218.96329
355.222	214.00968
355.435	211.97726
355.647	206.77023
355.86	210.88907
356.073	204.90383
356.286	204.57313
356.499	198.07386
356.712	193.475
356.925	191.26859
357.138	188.49355
357.35	181.84684
357.563	183.4304
357.776	178.76968
357.989	181.31206
358.201	180.57039
358.414	179.55069
358.627	180.37696
358.84	184.09611
359.052	185.11901
359.265	185.40747
359.478	186.44406
359.69	185.77112
359.903	183.09405
360.116	177.69786
360.328	170.9311
360.541	167.71003
360.753	161.52672
360.966	154.81043
361.179	146.72454
361.391	142.1013
361.604	135.47261
361.816	133.36083
362.029	132.97089
362.241	133.75879
362.454	136.54052
362.666	138.67154
362.879	143.58386
363.091	146.18981
363.304	151.94511
363.516	157.77422
363.728	165.37269
363.941	170.82479
364.153	175.66643
364.366	173.59926
364.578	176.94274
364.79	179.66165
365.003	180.77678
365.215	179.78957
365.427	182.50398
365.639	183.27596
365.852	186.00057
366.064	187.87884
366.276	188.44151
366.488	188.56153
366.701	186.28565
366.913	187.9419
367.125	187.05443
367.337	189.95655
367.549	188.74104
367.762	191.40816
367.974	194.50566
368.186	197.03823
368.398	201.8533
368.61	204.60593
368.822	205.29095
369.034	207.40612
369.246	210.92972
369.458	211.76461
369.67	207.59347
369.882	211.05779
370.094	207.36678
370.306	207.98628
370.518	203.7712
370.73	198.59365
370.942	194.63107
371.154	192.51567
371.366	190.35919
371.578	190.3897
371.79	188.20414
372.002	186.88052
372.214	185.46216
372.425	186.79086
372.637	187.6388
372.849	193.93307
373.061	194.96156
373.273	200.0766
373.484	203.8593
373.696	207.80906
373.908	207.43291
374.12	208.24984
374.331	208.35473
374.543	207.2974
374.755	208.28426
374.967	207.87677
375.178	199.07071
375.39	205.49198
375.602	198.82904
375.813	197.68182
376.025	194.75125
376.236	191.91663
376.448	188.63282
376.66	185.96907
376.871	180.29369
377.083	179.87851
377.294	176.94582
377.506	176.51877
377.717	175.26908
377.929	174.16065
378.14	176.81179
378.352	177.97467
378.563	180.38482
378.775	181.69121
378.986	187.33692
379.197	192.22139
379.409	193.65511
379.62	195.873
379.832	197.23855
380.043	197.46155
380.254	193.4368
380.466	196.65831
380.677	197.30944
380.888	193.76846
381.1	190.92509
381.311	194.25048
381.522	192.17374
381.733	196.27822
381.945	196.61057
382.156	198.3299
382.367	200.64003
382.578	198.32303
382.789	196.71663
383.001	197.81002
383.212	197.05923
383.423	195.58963
383.634	189.91661
383.845	188.43193
384.056	184.60371
384.267	186.1401
384.478	185.10819
384.69	180.04759
384.901	179.82173
385.112	182.8316
385.323	179.66841
385.534	179.80345
385.745	179.10014
385.956	178.27978
386.167	180.09206
386.378	181.14358
386.588	180.81876
386.799	178.59665
387.01	181.27479
387.221	180.94005
387.432	180.3372
387.643	184.20046
387.854	180.5803
388.065	181.60349
388.275	182.74308
388.486	185.76954
388.697	185.01806
388.908	185.92113
389.119	186.61995
389.329	191.72126
389.54	188.03669
389.751	186.28759
389.962	188.13635
390.172	182.58085
390.383	182.70585
390.594	176.24045
390.804	172.23488
391.015	172.96497
391.226	165.55467
391.436	163.07994
391.647	158.84169
391.858	160.16369
392.068	158.9699
392.279	156.97366
392.489	156.98073
392.7	158.82837
392.91	157.45326
393.121	161.70404
393.331	161.8378
393.542	162.28324
393.752	161.19856
393.963	159.31716
394.173	157.2531
394.384	160.59124
394.594	156.27238
394.804	157.57335
395.015	157.78616
395.225	162.84303
395.436	162.89179
395.646	167.1823
395.856	168.86515
396.067	172.19741
396.277	176.99408
396.487	182.63275
396.697	179.69339
396.908	184.36518
397.118	186.61777
397.328	187.19706
397.538	186.3071
397.749	184.3128
397.959	184.42741
398.169	183.62837
398.379	177.60839
398.589	179.7967
398.8	176.15444
399.01	177.01973
399.22	179.30504
399.43	177.88983
399.64	178.18616
399.85	180.7664
400.06	178.3321
400.27	179.66873
400.48	183.93804
400.69	185.06689
400.9	183.2708
401.11	188.3705
401.32	188.87285
401.53	186.24531
401.74	187.75746
401.95	188.31787
402.16	184.94477
402.37	189.85873
402.58	179.38178
402.79	179.03165
403	176.66712
403.209	174.58288
403.419	168.17767
403.629	167.58056
403.839	164.36582
404.049	159.37765
404.258	157.30555
404.468	155.56525
404.678	153.41729
404.888	152.69097
405.097	151.38532
405.307	154.08027
405.517	152.61279
405.727	158.94726
405.936	154.54122
406.146	157.42737
406.356	159.59508
406.565	161.9507
406.775	164.10551
406.984	166.48084
407.194	169.68728
407.404	174.50951
407.613	173.53203
407.823	177.91863
408.032	182.53775
408.242	181.46539
408.451	179.00491
408.661	180.39649
408.87	183.73812
409.08	181.12803
409.289	177.4123
409.499	176.43565
409.708	172.44464
409.918	170.16158
410.127	170.58966
410.336	163.42028
410.546	166.8136
410.755	163.74755
410.964	164.93383
411.174	166.02939
411.383	168.48504
411.592	171.09224
411.802	172.20411
412.011	178.5271
412.22	176.81779
412.429	179.63652
412.639	182.54268
412.848	182.56842
413.057	181.85015
413.266	184.78704
413.475	183.45575
413.685	181.92819
413.894	181.0811
414.103	181.46686
414.312	175.08146
414.521	176.10208
414.73	171.50422
414.939	170.88245
415.148	166.01161
415.357	158.50064
415.566	156.36315
415.776	156.29505
415.985	149.90034
416.194	145.81009
416.403	140.15507
416.611	137.3947
416.82	134.70123
417.029	131.32434
417.238	126.70829
417.447	124.80983
417.656	118.44111
417.865	114.87034
418.074	114.27945
418.283	106.31574
418.492	103.03328
418.7	103.10008
418.909	98.96286
419.118	98.96551
419.327	98.91254
419.536	98.86099
419.744	98.68663
419.953	98.68699
420.162	98.6862
420.371	98.68752
420.579	98.68674
420.788	98.68701
420.997	98.68631
421.205	98.68738
421.414	98.68698
421.623	98.68675
421.831	98.68683
422.04	98.68631
422.249	98.68639
422.457	98.68741
422.666	98.68632
422.874	98.68691
423.083	98.68682
423.291	98.68783
423.5	98.68677
423.708	98.6876
423.917	98.68645
424.125	98.68743
424.334	98.68666
424.542	98.68671
424.751	98.68722
424.959	98.68646
425.167	98.68691
425.376	98.68723
425.584	98.68662
425.793	98.68682
426.001	98.68671
426.209	98.80239
426.418	98.91573
426.626	101.17786
426.834	104.62279
427.042	109.56267
427.251	111.49149
427.459	113.80108
427.667	122.30693
427.875	126.38629
428.084	127.6139
428.292	133.64902
428.5	133.33318
428.708	138.06607
428.916	137.97572
429.124	139.25256
429.333	137.72348
429.541	138.52838
429.749	135.61389
429.957	134.70117
430.165	134.35045
430.373	136.52337
430.581	138.77719
430.789	135.52269
430.997	135.4222
431.205	134.40844
431.413	131.7844
431.621	132.44308
431.829	128.84059
432.037	120.95384
432.245	123.61722
432.453	118.61295
432.661	115.36641
432.869	112.23921
433.076	108.6164
433.284	106.46179
433.492	104.16526
433.7	104.5942
433.908	103.96533
434.116	102.94942
434.323	107.65274
434.531	106.30192
434.739	110.63789
434.947	113.99819
435.154	116.03114
435.362	120.88049
435.57	122.24766
435.778	122.22786
435.985	125.65577
436.193	125.2443
436.401	123.47438
436.608	126.33154
436.816	130.12326
437.023	124.05829
437.231	125.0456
437.439	118.61166
437.646	118.53052
437.854	119.83731
438.061	119.33906
438.269	112.6161
438.476	113.67932
438.684	111.28396
438.891	104.99523
439.099	104.54294
439.306	102.00424
439.514	101.24857
439.721	98.98626
439.929	98.88735
440.136	98.77036
440.343	98.68691
440.551	98.68721
440.758	98.68656
440.965	98.68682
441.173	98.68704
441.38	98.68679
441.587	98.90807
441.795	98.84113
442.002	99.18753
442.209	100.53966
442.416	104.41352
442.624	106.95158
442.831	110.23648
443.038	112.28417
443.245	114.34031
443.452	118.46246
443.66	114.98923
443.867	113.93538
444.074	113.01513
444.281	108.29905
444.488	106.24224
444.695	103.94297
444.902	99.60448
445.109	98.88789
445.316	98.73696
445.523	98.68619
445.73	98.68703
445.937	98.68678
446.144	98.68686
446.351	98.68669
446.558	98.6877
446.765	98.68634
446.972	98.68721
447.179	98.68692
447.386	98.68623
447.593	98.68747
447.8	98.68666
448.007	98.68662
448.214	98.81454
448.42	98.93716
448.627	100.15745
448.834	101.60498
449.041	103.75805
449.248	108.20977
449.454	114.40772
449.661	116.83802
449.868	121.94991
450.075	122.61313
450.281	127.9915
450.488	131.81236
450.695	134.01678
450.901	131.01075
451.108	132.26706
451.315	133.21071
451.521	132.40621
451.728	126.50616
451.935	129.27561
452.141	126.4071
452.348	123.80845
452.554	126.7079
452.761	122.65738
452.967	122.80795
453.174	121.38796
453.38	123.80601
453.587	125.63431
453.793	124.95765
454	128.68938
454.206	130.28566
454.413	132.65202
454.619	133.48282
454.825	131.62884
455.032	136.41289
455.238	139.03249
455.445	136.75313
455.651	138.6294
455.857	140.34744
456.064	137.85335
456.27	139.29035
456.476	141.6942
456.682	142.42602
456.889	140.11694
457.095	142.60227
457.301	141.06598
457.507	136.44196
457.714	133.58105
457.92	130.26933
458.126	125.28786
458.332	117.72487
458.538	111.90811
458.744	106.19382
458.951	99.92041
459.157	98.84921
459.363	98.68683
459.569	98.68664
459.775	98.68724
459.981	98.68658
460.187	98.68676
460.393	98.68686
460.599	98.68707
460.805	98.68699
461.011	98.73543
461.217	99.05045
461.423	105.63617
461.629	108.33983
461.835	115.4336
462.041	121.95772
462.247	128.79953
462.453	134.7662
462.658	141.53486
462.864	141.34005
463.07	144.40633
463.276	144.88056
463.482	144.18392
463.688	145.61888
463.893	147.13375
464.099	146.3559
464.305	149.30727
464.511	143.37328
464.716	143.34615
464.922	147.21958
465.128	142.1522
465.333	142.87221
465.539	144.13392
465.745	140.47174
465.95	144.68478
466.156	141.86114
466.362	137.82141
466.567	144.25356
466.773	142.36738
466.978	142.47789
467.184	135.23645
467.389	137.89196
467.595	140.28535
467.8	138.70664
468.006	137.51832
468.211	141.41282
468.417	141.12602
468.622	146.67304
468.828	147.99696
469.033	145.85248
469.239	148.55062
469.444	147.2061
469.649	148.12283
469.855	149.9099
470.06	149.90546
470.266	149.05495
470.471	147.3843
470.676	150.0484
470.881	151.49214
471.087	151.94535
471.292	149.35296
471.497	150.47021
471.703	153.8396
471.908	152.71295
472.113	147.14439
472.318	149.1001
472.523	147.15155
472.729	148.85927
472.934	149.90864
473.139	148.29398
473.344	149.19449
473.549	146.59501
473.754	147.43149
473.959	146.1272
474.164	148.55087
474.369	152.52351
474.575	156.54943
474.78	153.76119
474.985	155.20105
475.19	154.78893
475.395	151.20765
475.6	148.41075
475.804	146.80114
476.009	145.41933
476.214	142.60429
476.419	138.39718
476.624	136.47083
476.829	134.5512
477.034	131.58235
477.239	129.31094
477.444	128.65813
477.648	126.01503
477.853	125.25932
478.058	124.75065
478.263	123.01903
478.468	124.82956
478.672	125.32356
478.877	122.32395
479.082	126.04252
479.287	124.13415
479.491	125.49549
479.696	125.19377
479.901	125.42799
480.105	121.80329
480.31	120.86558
480.515	118.67605
480.719	114.16069
480.924	110.15368
481.128	105.69724
481.333	102.98071
481.538	100.21821
481.742	98.86459
481.947	98.6874
482.151	98.68694
482.356	98.68716
482.56	98.68684
482.765	98.68722
482.969	98.68692
483.174	98.6868
483.378	98.68642
483.582	98.68698
483.787	98.68674
483.991	98.68631
484.196	98.68706
484.4	98.68705
484.604	98.68685
484.809	98.68745
485.013	98.68654
485.217	98.68702
485.422	98.68689
485.626	98.68749
485.83	98.68667
486.034	98.68633
486.239	98.68692
486.443	98.68782
486.647	98.68648
486.851	98.68737
487.055	98.68711
487.26	98.68726
487.464	98.68615
487.668	98.68699
487.872	98.68704
488.076	98.68688
488.28	98.68689
488.484	98.68686
488.688	98.68695
488.892	98.68697
489.096	98.68664
489.3	98.68731
489.504	98.68687
489.708	98.68655
489.912	98.68668
490.116	98.68728
490.32	98.68677
490.524	98.68669
490.728	98.68765
490.932	98.6869
491.136	98.68688
491.34	98.68755
491.544	98.68625
491.748	98.68714
491.951	98.68705
492.155	98.68688
492.359	98.68619
492.563	98.68709
492.767	98.6865
492.97	98.68682
493.174	98.68744
493.378	98.68734
493.582	98.80884
493.785	99.42057
493.989	103.74427
494.193	109.46638
494.396	114.62082
494.6	116.63407
494.804	118.76568
495.007	119.72652
495.211	119.17183
495.414	118.89211
495.618	115.30857
495.822	112.74034
496.025	109.4251
496.229	107.59893
496.432	104.33325
496.636	102.57925
496.839	101.25031
497.043	99.94746
497.246	99.68461
497.45	99.53263
497.653	99.81018
497.856	101.70275
498.06	102.22227
498.263	105.35383
498.467	107.60827
498.67	109.08183
498.873	111.07217
499.077	113.92191
499.28	115.66973
499.483	117.3774
499.686	119.55096
499.89	121.17618
500.093	125.22813
500.296	127.50681
500.499	130.54688
500.703	132.63066
500.906	132.96726
501.109	135.86658
501.312	137.97173
501.515	138.78594
501.719	138.45625
501.922	139.50483
502.125	140.93008
502.328	141.53316
502.531	140.53262
502.734	141.63244
502.937	138.50306
503.14	139.49035
503.343	136.44323
503.546	136.26911
503.749	133.16919
503.952	133.79117
504.155	132.2953
504.358	133.14256
504.561	130.9326
504.764	131.04866
504.967	132.38885
505.17	134.97928
505.373	135.06548
505.576	137.95422
505.778	138.1896
505.981	138.55108
506.184	139.71455
506.387	140.46754
506.59	138.10792
506.793	138.01336
506.995	136.30673
507.198	134.02373
507.401	132.18719
507.604	129.57129
507.806	126.45939
508.009	124.46013
508.212	122.19689
508.414	119.99983
508.617	117.94605
508.82	117.53042
509.022	116.18418
509.225	117.22753
509.427	115.12172
509.63	116.91827
509.833	117.66158
510.035	117.24006
510.238	120.04806
510.44	119.15365
510.643	120.19376
510.845	121.87045
511.048	120.94995
511.25	121.60015
511.453	121.50844
511.655	120.79715
511.858	120.6809
512.06	121.47092
512.262	121.37933
512.465	120.43797
512.667	122.8871
512.869	124.27221
513.072	125.0956
513.274	128.01833
513.476	129.42373
513.679	133.1103
513.881	135.2828
514.083	138.65488
514.286	140.05409
514.488	141.59084
514.69	144.68247
514.892	145.58024
515.094	145.7066
515.297	147.66389
515.499	146.3296
515.701	148.25945
515.903	145.0541
516.105	144.98018
516.307	142.09112
516.509	139.52145
516.711	133.77609
516.913	132.33914
517.116	125.19321
517.318	120.14833
517.52	114.89794
517.722	109.2451
517.924	104.66966
518.126	101.38737
518.328	99.10743
518.529	99.03177
518.731	99.00576
518.933	99.02762
519.135	99.0047
519.337	99.07756
519.539	100.55527
519.741	103.20782
519.943	109.23358
520.145	113.31905
520.346	116.6733
520.548	122.80051
520.75	124.99129
520.952	128.69921
521.153	131.63906
521.355	134.60021
521.557	137.66411
521.759	138.78671
521.96	139.82663
522.162	143.35736
522.364	140.52989
522.565	142.92153
522.767	141.8984
522.969	142.28973
523.17	140.52888
523.372	139.44702
523.573	136.8532
523.775	135.8049
523.977	131.31929
524.178	127.39804
524.38	120.75258
524.581	115.19329
524.783	109.33092
524.984	103.60687
525.186	99.52317
525.387	98.96487
525.589	98.80285
525.79	98.70417
525.991	98.68697
526.193	98.68744
526.394	98.68694
526.596	98.68799
526.797	98.68699
526.998	98.68669
527.2	98.68706
527.401	98.68717
527.602	98.68666
527.803	98.68652
528.005	98.68705
528.206	98.68637
528.407	98.68693
528.608	98.68684
528.81	98.68673
529.011	98.68708
529.212	98.68635
529.413	98.68707
529.614	98.68709
529.815	98.68695
530.017	98.68692
530.218	98.68692
530.419	98.68658
530.62	98.68786
530.821	98.68718
531.022	98.68707
531.223	98.68651
531.424	98.68697
531.625	98.68672
531.826	98.68633
532.027	98.68692
532.228	98.68693
532.429	98.68682
532.63	98.68706
532.831	98.68703
533.032	98.68715
533.233	98.68678
533.433	98.68794
533.634	98.68699
533.835	98.68733
534.036	98.68676
534.237	98.68715
534.438	98.68674
534.638	98.68733
534.839	98.68686
535.04	98.80926
535.241	98.92327
535.441	98.99611
535.642	98.99142
535.843	98.93351
536.043	98.7802
536.244	98.7106
536.445	98.68676
536.645	98.687
536.846	98.68706
537.047	98.68645
537.247	98.6873
537.448	98.87112
537.648	99.03966
537.849	101.95758
538.049	107.29419
538.25	114.85547
538.451	118.28141
538.651	122.70117
538.851	123.71275
539.052	124.33093
539.252	122.86719
539.453	119.06083
539.653	114.55439
539.854	106.8015
540.054	99.19432
540.254	98.6872
540.455	98.68684
540.655	98.68719
540.855	98.68714
541.056	98.68721
541.256	98.68715
541.456	98.6867
541.657	98.68721
541.857	98.68639
542.057	98.68693
542.257	98.68711
542.458	98.68691
542.658	98.687
542.858	98.68761
543.058	98.68689
543.258	98.68691
543.458	98.68721
543.659	98.68692
543.859	98.82797
544.059	99.0276
544.259	100.11829
544.459	104.06704
544.659	107.38375
544.859	110.16072
545.059	112.50201
545.259	113.14102
545.459	114.60272
545.659	112.15575
545.859	111.46803
546.059	109.51792
546.259	108.75327
546.459	106.66225
546.659	107.62929
546.859	109.65607
547.059	109.86817
547.258	112.30553
547.458	115.17276
547.658	118.79679
547.858	124.57969
548.058	131.31868
548.258	139.54186
548.457	146.44251
548.657	154.82152
548.857	161.31012
549.057	168.98845
549.256	171.95069
549.456	177.91615
549.656	182.34392
549.855	184.39896
550.055	186.54476
550.255	187.7665
550.454	188.37853
550.654	191.32132
550.853	187.91625
551.053	189.24039
551.253	185.0209
551.452	183.09268
551.652	176.88236
551.851	173.82118
552.051	169.71925
552.25	165.41521
552.45	161.01004
552.649	161.33061
552.849	159.15443
553.048	160.4905
553.248	159.69379
553.447	162.60138
553.646	165.37254
553.846	170.73216
554.045	174.48396
554.244	181.51097
554.444	185.83195
554.643	189.86219
554.842	192.96729
555.042	198.48824
555.241	201.2806
555.44	204.26589
555.64	204.35059
555.839	206.6405
556.038	207.38939
556.237	207.44124
556.436	209.19765
556.636	208.64029
556.835	210.86079
557.034	212.72399
557.233	213.01717
557.432	212.89802
557.631	213.83004
557.83	214.87315
558.029	216.81109
558.228	218.21677
558.427	220.87759
558.626	219.94371
558.825	221.16089
559.024	223.04774
559.223	223.12578
559.422	220.95384
559.621	221.64106
559.82	220.3915
560.019	217.68668
560.218	215.53382
560.417	213.7745
560.616	210.97818
560.815	209.88467
561.014	206.3577
561.212	205.91462
561.411	207.41837
561.61	204.34025
561.809	208.23673
562.008	207.35137
562.206	210.74592
562.405	210.66382
562.604	216.5439
562.803	216.01572
563.001	217.60466
563.2	221.51963
563.399	219.34268
563.597	220.21136
563.796	218.99169
563.995	218.29254
564.193	214.38029
564.392	210.04915
564.59	207.56081
564.789	198.73487
564.988	196.10853
565.186	187.72823
565.385	182.12687
565.583	175.35362
565.782	170.18022
565.98	168.15345
566.179	165.69755
566.377	163.96556
566.575	165.69545
566.774	165.05958
566.972	170.41927
567.171	172.05343
567.369	177.66763
567.567	184.31311
567.766	188.66105
567.964	194.67585
568.162	199.7636
568.361	201.67664
568.559	202.1955
568.757	203.44757
568.956	206.34505
569.154	203.52036
569.352	204.14246
569.55	203.06283
569.748	201.92904
569.947	197.12369
570.145	198.54185
570.343	193.35861
570.541	191.45662
570.739	185.47836
570.937	180.63807
571.135	178.66753
571.333	171.51042
571.532	170.35833
571.73	165.66714
571.928	163.48276
572.126	161.30632
572.324	162.73884
572.522	163.59187
572.72	165.97019
572.918	169.72352
573.116	172.22743
573.313	175.75364
573.511	178.64555
573.709	182.97697
573.907	183.82082
574.105	183.24903
574.303	183.55057
574.501	183.4279
574.699	180.30535
574.896	180.45276
575.094	178.91119
575.292	180.51993
575.49	181.25779
575.688	184.82773
575.885	185.89032
576.083	191.49404
576.281	193.2903
576.478	199.1561
576.676	203.4399
576.874	211.73382
577.071	213.5231
577.269	219.10417
577.467	222.03191
577.664	227.47935
577.862	232.41831
578.059	237.41533
578.257	240.30713
578.455	246.76826
578.652	250.64685
578.85	255.76696
579.047	256.49957
579.245	263.82594
579.442	264.95149
579.64	268.33757
579.837	267.08429
580.034	273.74981
580.232	270.74174
580.429	275.1786
580.627	275.78275
580.824	276.49845
581.021	274.28537
581.219	278.09133
581.416	278.58453
581.613	279.66948
581.811	279.74486
582.008	283.16185
582.205	282.5093
582.402	286.30395
582.6	285.53388
582.797	289.71397
582.994	286.56647
583.191	291.00086
583.388	289.24938
583.586	291.31236
583.783	293.71446
583.98	294.12078
584.177	292.74053
584.374	296.62556
584.571	297.13371
584.768	298.16133
584.965	298.24073
585.162	297.74865
585.359	297.86426
585.556	300.97724
585.753	296.3853
585.95	298.5778
586.147	298.77808
586.344	301.47674
586.541	299.98209
586.738	299.46638
586.935	297.72284
587.132	297.07763
587.329	293.22798
587.526	298.24037
587.722	288.34598
587.919	287.74381
588.116	285.53047
588.313	281.75
588.51	277.95931
588.706	276.48879
588.903	272.52207
589.1	269.95344
589.297	267.87875
589.493	262.81571
589.69	263.56179
589.887	264.75414
590.083	264.87639
590.28	263.98315
590.477	267.3297
590.673	270.43763
590.87	272.91714
591.067	277.79108
591.263	283.0228
591.46	286.05207
591.656	290.83997
591.853	291.75081
592.049	296.76316
592.246	297.88799
592.442	298.86572
592.639	300.66037
592.835	295.32892
593.032	297.44821
593.228	287.77333
593.425	287.65032
593.621	282.4454
593.817	279.29906
594.014	275.47847
594.21	272.83439
594.406	271.24079
594.603	269.06832
594.799	265.1817
594.995	265.49401
595.192	261.10602
595.388	257.50295
595.584	252.49909
595.78	244.6186
595.977	236.18858
596.173	226.34414
596.369	215.91332
596.565	211.18928
596.761	206.30023
596.957	204.21895
597.154	205.80248
597.35	204.81684
597.546	208.55871
597.742	216.01895
597.938	223.88356
598.134	235.94073
598.33	249.84753
598.526	262.71306
598.722	277.65737
598.918	287.03866
599.114	300.87711
599.31	305.96108
599.506	315.65805
599.702	317.50495
599.898	322.5707
600.094	325.96963
600.29	326.3452
600.485	326.70035
600.681	323.6075
600.877	325.32072
601.073	324.76917
601.269	322.11219
601.465	317.47452
601.66	314.66605
601.856	302.49277
602.052	297.82803
602.248	284.53537
602.443	274.70527
602.639	260.26157
602.835	253.85651
603.03	244.21784
603.226	234.85765
603.422	226.11908
603.617	215.79984
603.813	206.5885
604.009	199.97083
604.204	196.20405
604.4	193.34776
604.595	192.69573
604.791	195.0969
604.986	196.49498
605.182	199.02723
605.377	202.70542
605.573	211.63472
605.768	222.081
605.964	233.68383
606.159	245.6725
606.355	260.18166
606.55	269.78642
606.746	282.2107
606.941	289.68588
607.136	293.48289
607.332	298.58526
607.527	298.26736
607.722	295.07409
607.918	290.38408
608.113	279.40373
608.308	267.47275
608.503	256.40819
608.699	245.17186
608.894	236.11656
609.089	228.91319
609.284	224.67361
609.479	219.24099
609.675	217.28449
609.87	218.4611
610.065	219.66619
610.26	225.53192
610.455	235.99823
610.65	243.36383
610.845	255.4598
611.04	266.90846
611.235	274.90079
611.43	288.40396
611.625	295.69269
611.82	304.22096
612.015	314.006
612.21	322.59651
612.405	324.36299
612.6	331.20468
612.795	339.81976
612.99	344.62382
613.185	344.82999
613.38	350.36382
613.575	353.93085
613.77	354.20719
613.965	359.60887
614.159	364.94044
614.354	363.58865
614.549	363.77131
614.744	368.46074
614.938	369.0209
615.133	369.16587
615.328	370.99756
615.523	375.69287
615.717	374.5993
615.912	373.85542
616.107	374.34933
616.301	378.13025
616.496	375.44081
616.691	372.20867
616.885	371.27623
617.08	374.6716
617.274	373.1444
617.469	369.40171
617.664	369.55305
617.858	370.52736
618.053	371.89116
618.247	367.05333
618.442	374.14695
618.636	370.54686
618.831	373.61062
619.025	373.48905
619.219	379.42133
619.414	377.24003
619.608	380.23498
619.803	386.1045
619.997	381.69083
620.191	386.23408
620.386	389.59079
620.58	388.09395
620.774	393.77749
620.969	394.75709
621.163	396.58259
621.357	394.89999
621.551	400.54964
621.746	399.53284
621.94	401.8829
622.134	403.6251
622.328	399.4073
622.522	406.40618
622.716	405.13118
622.911	402.98286
623.105	401.1236
623.299	404.68809
623.493	405.57734
623.687	402.83937
623.881	403.34603
624.075	396.53181
624.269	399.72692
624.463	395.4557
624.657	393.82402
624.851	381.2686
625.045	375.95213
625.239	367.59149
625.433	357.00004
625.627	345.63265
625.821	335.77069
626.015	322.06722
626.209	316.48185
626.403	305.75533
626.596	301.20704
626.79	297.4668
626.984	294.32475
627.178	295.56166
627.372	300.35667
627.565	303.88054
627.759	311.86089
627.953	317.52919
628.147	327.32129
628.34	334.44816
628.534	344.0489
628.728	352.44901
628.921	361.34795
629.115	367.60153
629.309	375.18909
629.502	376.98846
629.696	386.58767
629.89	386.78754
630.083	396.28788
630.277	395.64704
630.47	402.98891
630.664	408.81888
630.857	411.32189
631.051	418.30198
631.244	423.1073
631.438	428.15669
631.631	429.72691
631.825	430.74688
632.018	431.78671
632.212	431.14561
632.405	430.09109
632.598	424.5007
632.792	419.2441
632.985	414.7067
633.178	405.78331
633.372	397.86291
633.565	394.74824
633.758	386.44498
633.952	384.03587
634.145	386.76526
634.338	385.1136
634.531	381.47669
634.724	391.10702
634.918	395.09923
635.111	401.09725
635.304	409.15163
635.497	415.49694
635.69	416.57074
635.883	427.32148
636.077	430.99096
636.27	443.21196
636.463	439.10681
636.656	446.34665
636.849	444.35413
637.042	448.48287
637.235	460.58098
637.428	459.86423
637.621	463.87377
637.814	463.63293
638.007	477.50934
638.2	476.52627
638.393	486.09745
638.586	491.1422
638.778	490.09065
638.971	498.3479
639.164	495.74144
639.357	508.89645
639.55	505.98439
639.743	509.46503
639.935	513.86026
640.128	515.92253
640.321	521.60243
640.514	525.3377
640.707	525.44633
640.899	530.36187
641.092	534.15047
641.285	535.87781
641.477	534.07512
641.67	543.12757
641.863	546.57035
642.055	546.42205
642.248	547.16198
642.441	551.46706
642.633	556.96795
642.826	561.79641
643.018	560.06441
643.211	558.8861
643.403	558.43529
643.596	565.52326
643.788	566.4956
643.981	566.27365
644.173	561.15062
644.366	568.05649
644.558	571.35036
644.751	571.79923
644.943	569.36051
645.135	576.86064
645.328	565.83186
645.52	573.76425
645.712	566.0245
645.905	573.77167
646.097	564.86147
646.289	570.59365
646.482	566.199
646.674	568.12088
646.866	568.16414
647.058	566.81239
647.251	563.29074
647.443	567.60822
647.635	561.43539
647.827	573.81493
648.019	565.61673
648.211	565.51945
648.404	566.164
648.596	569.11882
648.788	568.66014
648.98	566.40312
649.172	571.47601
649.364	560.99553
649.556	561.75102
649.748	555.72152
649.94	553.26997
650.132	553.48967
650.324	547.8496
650.516	544.12194
650.708	531.8102
650.9	545.51782
651.092	527.06389
651.284	533.18836
651.476	528.01967
651.667	528.85808
651.859	530.39752
652.051	531.81269
652.243	533.69316
652.435	537.58766
652.627	543.73252
652.818	546.33476
653.01	556.69685
653.202	561.72897
653.394	570.6082
653.585	571.93329
653.777	584.02794
653.969	592.05936
654.16	596.07928
654.352	600.72214
654.544	602.16705
654.735	613.08439
654.927	606.48168
655.118	615.11343
655.31	610.27526
655.502	611.23076
655.693	606.16228
655.885	604.73891
656.076	615.39933
656.268	599.27449
656.459	596.33905
656.651	595.04872
656.842	585.22616
657.034	585.29126
657.225	568.50012
657.416	563.27877
657.608	538.61742
657.799	521.98968
657.99	494.16964
658.182	475.98249
658.373	448.70691
658.564	435.64965
658.756	415.75395
658.947	402.31926
659.138	395.4548
659.33	396.56068
659.521	387.36172
659.712	392.5397
659.903	399.6444
660.094	414.87994
660.286	422.88389
660.477	447.18665
660.668	458.26866
660.859	485.98693
661.05	503.31218
661.241	520.80098
661.432	534.22031
661.623	551.41428
661.814	565.34823
662.006	576.58899
662.197	586.41159
662.388	601.13057
662.579	614.72001
662.77	628.78601
662.96	634.56802
663.151	645.26586
663.342	648.08074
663.533	657.39221
663.724	666.03272
663.915	679.78295
664.106	671.90993
664.297	684.22377
664.488	683.99567
664.678	692.79024
664.869	683.15177
665.06	696.23209
665.251	700.05762
665.442	694.76138
665.632	701.47793
665.823	694.67029
666.014	694.48372
666.204	701.40236
666.395	690.86666
666.586	706.24374
666.776	702.28253
666.967	698.65067
667.158	698.64878
667.348	694.10009
667.539	686.52272
667.729	674.10736
667.92	667.16984
668.111	666.16068
668.301	651.96508
668.492	649.44415
668.682	635.05941
668.873	634.28515
669.063	625.48784
669.253	633.00281
669.444	629.58119
669.634	631.11047
669.825	637.85151
670.015	648.53787
670.206	653.60581
670.396	668.91257
670.586	672.20588
670.777	691.56888
670.967	702.32794
671.157	707.84825
671.347	709.14739
671.538	725.61036
671.728	730.33283
671.918	735.27998
672.108	732.44668
672.299	741.68315
672.489	737.91396
672.679	748.48813
672.869	742.16624
673.059	754.1365
673.249	754.31292
673.44	758.97172
673.63	757.79675
673.82	752.18328
674.01	768.72695
674.2	755.99256
674.39	763.93157
674.58	764.65024
674.77	768.54831
674.96	775.67662
675.15	769.05601
675.34	770.55585
675.53	773.9932
675.72	766.0131
675.91	772.31407
676.099	782.39964
676.289	757.58975
676.479	766.40001
676.669	753.33095
676.859	761.74285
677.049	742.02992
677.238	734.24618
677.428	730.64039
677.618	723.09599
677.808	705.04289
677.997	700.80423
678.187	689.92916
678.377	670.71978
678.567	659.36031
678.756	643.77519
678.946	618.51731
679.136	602.20507
679.325	584.39305
679.515	571.85716
679.704	550.4764
679.894	539.33802
680.084	533.81469
680.273	540.7498
680.463	524.70238
680.652	532.69805
680.842	538.7458
681.031	552.34676
681.221	565.44335
681.41	581.9122
681.6	604.58226
681.789	619.97931
681.978	635.91834
682.168	656.70071
682.357	669.05324
682.547	677.55208
682.736	689.948
682.925	703.62365
683.115	710.80829
683.304	723.45248
683.493	742.29556
683.682	740.16585
683.872	750.23286
684.061	768.05116
684.25	773.96116
684.439	786.97989
684.629	774.69636
684.818	802.25594
685.007	785.17893
685.196	794.92389
685.385	791.72404
685.574	796.45119
685.763	797.74498
685.952	799.30878
686.142	796.90514
686.331	797.33557
686.52	798.91373
686.709	798.7113
686.898	801.12937
687.087	791.751
687.276	787.21181
687.465	786.16712
687.654	782.23236
687.842	796.86991
688.031	783.57235
688.22	791.64211
688.409	790.22402
688.598	793.80189
688.787	796.28335
688.976	802.66761
689.165	808.73695
689.353	818.4009
689.542	797.47595
689.731	819.00353
689.92	806.42675
690.108	822.64234
690.297	807.70062
690.486	836.86777
690.675	835.79275
690.863	840.56873
691.052	838.39591
691.241	867.53898
691.429	852.63353
691.618	874.83795
691.806	873.46332
691.995	886.6742
692.184	887.92869
692.372	905.43654
692.561	907.16858
692.749	922.75959
692.938	917.19423
693.126	941.41444
693.315	929.55308
693.503	941.85583
693.692	940.10194
693.88	947.35377
694.068	938.90196
694.257	937.96419
694.445	944.92418
694.634	940.54096
694.822	933.46215
695.01	943.66267
695.199	938.47193
695.387	932.56654
695.575	911.64746
695.763	925.05073
695.952	897.57524
696.14	892.15917
696.328	863.29702
696.516	855.32523
696.705	819.51031
696.893	797.94485
697.081	753.4588
697.269	724.78546
697.457	666.97865
697.645	626.77712
697.833	588.68731
698.021	547.25853
698.21	521.36521
698.398	499.59127
698.586	482.10888
698.774	474.47769
698.962	465.20708
699.15	472.01183
699.338	479.198
699.526	492.70909
699.714	513.43888
699.901	547.42609
700.089	577.997
700.277	615.868
700.465	653.56415
700.653	703.2541
700.841	735.48721
701.029	774.35574
701.217	804.10693
701.404	856.75792
701.592	872.96318
701.78	913.56736
701.968	934.32384
702.155	961.15013
702.343	968.44244
702.531	997.95121
702.718	1027.77277
702.906	1022.27156
703.094	1045.3422
703.281	1076.42761
703.469	1062.84388
703.657	1076.3844
703.844	1096.7033
704.032	1098.63511
704.219	1100.86012
704.407	1130.62681
704.595	1113.69689
704.782	1127.45394
704.97	1120.51866
705.157	1133.00898
705.345	1128.95462
705.532	1137.93927
705.719	1127.08019
705.907	1140.15012
706.094	1116.19007
706.282	1113.30131
706.469	1108.67111
706.656	1099.56418
706.844	1098.57823
707.031	1087.6837
707.218	1082.64396
707.406	1075.41255
707.593	1057.01359
707.78	1063.38244
707.968	1051.39474
708.155	1069.20175
708.342	1045.14627
708.529	1074.50902
708.716	1056.43485
708.904	1062.44915
709.091	1048.10051
709.278	1071.98432
709.465	1046.04719
709.652	1057.46219
709.839	1044.80872
710.026	1057.76099
710.213	1038.62176
710.4	1040.02501
710.587	1035.18926
710.774	1029.58383
710.961	1026.54561
711.148	1021.66409
711.335	1021.50728
711.522	1032.73489
711.709	1008.34218
711.896	1013.60551
712.083	1027.08363
712.27	1013.89418
712.457	1023.11069
712.644	1030.84031
712.831	1026.44661
713.017	1025.25837
713.204	1028.45366
713.391	1024.28623
713.578	1031.13182
713.765	1031.13957
713.951	1024.65799
714.138	1007.53977
714.325	1004.6919
714.512	1008.08565
714.698	981.78655
714.885	988.36514
715.072	970.33491
715.258	948.25782
715.445	936.97749
715.631	933.1105
715.818	937.3283
716.005	938.26862
716.191	934.05276
716.378	946.28001
716.564	954.12862
716.751	982.65515
716.937	997.06723
717.124	1021.12369
717.31	1053.37509
717.497	1089.89348
717.683	1108.21307
717.869	1148.65053
718.056	1169.1988
718.242	1193.24279
718.429	1225.29489
718.615	1243.08634
718.801	1255.34462
718.988	1288.80098
719.174	1288.51415
719.36	1301.61878
719.547	1317.95056
719.733	1342.6056
719.919	1344.52457
720.105	1369.87961
720.291	1364.10018
720.478	1374.04131
720.664	1373.16205
720.85	1403.57643
721.036	1383.63795
721.222	1427.80679
721.408	1407.95814
721.595	1420.71146
721.781	1432.20953
721.967	1453.87346
722.153	1436.44113
722.339	1463.9389
722.525	1437.99404
722.711	1470.46537
722.897	1452.07755
723.083	1480.24939
723.269	1459.51013
723.455	1475.11886
723.641	1473.87739
723.827	1491.36841
724.012	1456.44853
724.198	1477.39184
724.384	1475.16532
724.57	1493.47522
724.756	1452.58688
724.942	1474.61589
725.127	1471.3179
725.313	1473.36338
725.499	1453.59464
725.685	1449.23357
725.87	1445.66435
726.056	1435.25134
726.242	1439.80557
726.428	1446.03203
726.613	1401.01484
726.799	1397.75704
726.985	1365.88855
727.17	1381.12695
727.356	1356.21951
727.541	1354.11581
727.727	1322.03295
727.913	1317.75923
728.098	1310.68333
728.284	1289.44337
728.469	1274.33324
728.655	1311.51837
728.84	1262.291
729.026	1288.42255
729.211	1279.58187
729.397	1295.23001
729.582	1285.2481
729.767	1263.26591
729.953	1262.11656
730.138	1296.51198
730.323	1273.86997
730.509	1288.88713
730.694	1272.20866
730.879	1307.89429
731.065	1282.99292
731.25	1312.55017
731.435	1264.81795
731.621	1294.42527
731.806	1284.81361
731.991	1280.56366
732.176	1250.57787
732.361	1292.90557
732.547	1237.56354
732.732	1260.32664
732.917	1235.8693
733.102	1247.88397
733.287	1234.24135
733.472	1272.83358
733.657	1258.36853
733.842	1269.25656
734.027	1296.11631
734.212	1313.84153
734.397	1349.28595
734.582	1376.92078
734.767	1422.27568
734.952	1464.83849
735.137	1495.42192
735.322	1541.51823
735.507	1558.48038
735.692	1571.97716
735.877	1590.96936
736.062	1620.40375
736.247	1628.83744
736.431	1655.49177
736.616	1668.89698
736.801	1667.04496
736.986	1643.72083
737.171	1656.4717
737.355	1665.0189
737.54	1647.10387
737.725	1652.02736
737.909	1652.33852
738.094	1605.65515
738.279	1654.58275
738.463	1589.76649
738.648	1626.47917
738.833	1592.95049
739.017	1637.23589
739.202	1600.52125
739.386	1619.64021
739.571	1603.86249
739.756	1629.0564
739.94	1642.44299
740.125	1656.97242
740.309	1649.08738
740.494	1696.64837
740.678	1693.6141
740.863	1703.87162
741.047	1693.51474
741.231	1750.88597
741.416	1735.36605
741.6	1796.21961
741.785	1801.39187
741.969	1814.78291
742.153	1814.50086
742.338	1869.55914
742.522	1868.8969
742.706	1891.33317
742.89	1880.37401
743.075	1950.34867
743.259	1948.01263
743.443	1955.68051
743.627	1953.8976
743.812	2003.27008
743.996	1966.29444
744.18	2004.61008
744.364	1996.1291
744.548	2048.70008
744.732	1989.65918
744.916	2102.261
745.1	2006.27681
745.285	2105.7418
745.469	2039.76159
745.653	2119.86452
745.837	2086.18314
746.021	2076.76855
746.205	2091.17626
746.389	2149.8004
746.573	2099.31706
746.757	2144.18725
746.94	2115.69191
747.124	2110.94732
747.308	2092.93788
747.492	2145.07108
747.676	2102.53599
747.86	2089.07199
748.044	2092.71309
748.227	2047.23792
748.411	2048.0168
748.595	2087.69384
748.779	2026.40433
748.963	2035.48815
749.146	2012.70616
749.33	2045.32905
749.514	1982.93676
749.697	1980.88685
749.881	2016.00067
750.065	2045.02127
750.248	2070.63271
750.432	2044.89436
750.616	2062.92274
750.799	2102.27963
750.983	2060.5529
751.166	2100.26754
751.35	2105.05117
751.533	2118.30037
751.717	2091.92578
751.9	2131.99054
752.084	2100.8164
752.267	2099.64195
752.451	2093.50245
752.634	2125.02702
752.818	2080.6283
753.001	2128.48946
753.184	2050.93593
753.368	2095.05579
753.551	2084.59414
753.734	2116.35808
753.918	2079.92187
754.101	2084.58364
754.284	2133.60634
754.467	2104.92854
754.651	2142.70253
754.834	2132.09431
755.017	2155.31289
755.2	2241.82434
755.384	2213.67659
755.567	2246.88497
755.75	2255.82048
755.933	2283.86895
756.116	2298.94698
756.299	2335.07865
756.482	2342.65387
756.665	2355.99602
756.848	2308.0883
757.032	2387.3335
757.215	2353.13548
757.398	2366.31447
757.581	2352.35465
757.764	2378.72965
757.947	2329.06933
758.129	2382.75236
758.312	2316.35347
758.495	2353.67187
758.678	2306.48345
758.861	2345.47652
759.044	2332.14438
759.227	2380.15494
759.41	2290.60185
759.592	2361.60756
759.775	2323.60954
759.958	2307.77664
760.141	2260.28538
760.324	2327.78946
760.506	2309.40758
760.689	2272.69148
760.872	2228.0509
761.054	2294.80326
761.237	2261.29838
761.42	2292.37523
761.602	2241.20976
761.785	2198.14054
761.968	2197.34818
762.15	2186.97906
762.333	2063.61991
762.515	2009.22482
762.698	1833.07371
762.88	1721.39661
763.063	1578.81399
763.245	1514.98378
763.428	1427.15838
763.61	1385.44277
763.793	1322.54046
763.975	1320.65729
764.158	1311.3654
764.34	1307.49437
764.522	1315.39439
764.705	1385.73738
764.887	1462.00263
765.069	1524.76872
765.252	1649.00861
765.434	1749.66926
765.616	1799.6209
765.799	1939.495
765.981	1991.12857
766.163	2071.54499
766.345	2086.40721
766.528	2184.17028
766.71	2195.65663
766.892	2265.72217
767.074	2299.68067
767.256	2357.62391
767.438	2366.8476
767.62	2512.44741
767.802	2504.30817
767.985	2597.71959
768.167	2627.44961
768.349	2758.72302
768.531	2801.11757
768.713	2906.00514
768.895	2905.35414
769.077	2976.28391
769.259	3101.8888
769.441	3129.10195
769.623	3099.60935
769.804	3249.12956
769.986	3205.45255
770.168	3295.07622
770.35	3289.93696
770.532	3293.97536
770.714	3303.78051
770.896	3453.20623
771.077	3353.96798
771.259	3476.1345
771.441	3416.76131
771.623	3521.25696
771.804	3485.91995
771.986	3578.06281
772.168	3529.65988
772.35	3637.97539
772.531	3582.41467
772.713	3628.7212
772.894	3631.30233
773.076	3633.01244
773.258	3621.83679
773.439	3744.60821
773.621	3598.46702
773.802	3762.70295
773.984	3716.75785
774.166	3748.54034
774.347	3721.54992
774.529	3816.10273
774.71	3736.68832
774.891	3805.43249
775.073	3788.4705
775.254	3894.14026
775.436	3695.33551
775.617	3872.76314
775.799	3869.1647
775.98	3797.64858
776.161	3814.48898
776.343	3765.86296
776.524	3817.75874
776.705	3736.05839
776.886	3714.26435
777.068	3653.64068
777.249	3700.31554
777.43	3559.05784
777.611	3633.97115
777.793	3566.39054
777.974	3440.00279
778.155	3660.27241
778.336	3484.98753
778.517	3528.49866
778.698	3563.14332
778.879	3484.85231
779.061	3518.59149
779.242	3555.5931
779.423	3559.33899
779.604	3481.43686
779.785	3474.00135
779.966	3560.3833
780.147	3461.2683
780.328	3474.20821
780.509	3504.86831
780.69	3619.64812
780.871	3506.0811
781.051	3485.51595
781.232	3558.84291
781.413	3620.08646
781.594	3527.34926
781.775	3628.33874
781.956	3512.01534
782.137	3619.33756
782.317	3522.40021
782.498	3601.73065
782.679	3561.74048
782.86	3711.49658
783.04	3640.95243
783.221	3744.60653
783.402	3491.93366
783.583	3664.44965
783.763	3639.56453
783.944	3644.28035
784.124	3652.76932
784.305	3724.82499
784.486	3701.05895
784.666	3689.59499
784.847	3547.15116
785.027	3696.74196
785.208	3704.2884
785.388	3727.67643
785.569	3672.93657
785.749	3684.37053
785.93	3619.00449
786.11	3704.54153
786.291	3536.27135
786.471	3626.58831
786.652	3488.554
786.832	3531.94752
787.012	3505.83757
787.193	3486.41635
787.373	3269.82309
787.553	3307.52354
787.734	3139.5608
787.914	3159.20844
788.094	2951.43272
788.275	2937.92916
788.455	2806.29912
788.635	2814.62389
788.815	2796.24293
788.995	2824.5341
789.176	2724.87614
789.356	2731.65557
789.536	2737.03591
789.716	2813.65291
789.896	2832.82487
790.076	2965.8579
790.256	2884.75493
790.436	3012.21219
790.616	3096.77675
790.796	3192.3436
790.976	3195.15052
791.156	3277.20267
791.336	3296.2449
791.516	3303.31596
791.696	3411.45209
791.876	3445.43127
792.056	3416.05724
792.236	3480.76987
792.416	3520.22876
792.596	3686.01114
792.776	3506.81763
792.956	3579.57923
793.135	3567.01358
793.315	3688.97788
793.495	3536.90761
793.675	3515.29309
793.854	3575.68493
794.034	3611.64066
794.214	3509.52029
794.394	3573.86405
794.573	3522.62788
794.753	3430.4559
794.933	3558.88679
795.112	3546.09748
795.292	3407.62444
795.472	3312.51835
795.651	3268.94123
795.831	3193.67331
796.01	3143.44693
796.19	3177.87606
796.369	3060.91522
796.549	3105.36347
796.728	3029.87164
796.908	3138.89116
797.087	2987.42327
797.267	3017.65882
797.446	3042.66848
797.626	3041.92054
797.805	3088.51786
797.984	3119.37456
798.164	3099.75364
798.343	3176.89345
798.522	3223.21295
798.702	3255.39368
798.881	3213.25286
799.06	3407.97123
799.239	3297.8322
799.419	3341.46316
799.598	3378.84479
799.777	3292.89827
799.956	3378.76483
800.136	3415.4823
800.315	3433.33302
800.494	3464.39334
800.673	3520.83827
800.852	3531.52392
801.031	3547.34989
801.21	3579.78519
801.389	3561.21226
801.568	3604.31888
801.747	3650.67495
801.926	3809.64047
802.105	3652.74963
802.284	3678.57153
802.463	3753.61707
802.642	3810.09637
802.821	3813.15729
803	3889.00856
803.179	3723.4795
803.358	3856.44739
803.537	3797.94178
803.716	3936.8102
803.895	3834.89762
804.073	3909.46055
804.252	3898.13384
804.431	3869.3238
804.61	3884.9546
804.789	3984.006
804.967	3848.19538
805.146	3911.37695
805.325	3719.99647
805.503	3808.32091
805.682	3833.97829
805.861	3819.35559
806.039	3781.63468
806.218	3731.08881
806.397	3897.02034
806.575	3732.27887
806.754	3839.45052
806.932	3824.27389
807.111	3841.8906
807.289	3928.22617
807.468	3910.1625
807.646	3883.08139
807.825	3936.57816
808.003	3994.84464
808.182	3951.17108
808.36	4121.08078
808.539	4114.3299
808.717	4092.0279
808.895	4117.9331
809.074	4250.44763
809.252	4131.14643
809.43	4369.20687
809.609	4364.45577
809.787	4317.85358
809.965	4341.39431
810.144	4419.28241
810.322	4439.27315
810.5	4512.43176
810.678	4474.41372
810.856	4566.61726
811.035	4513.17005
811.213	4639.61618
811.391	4576.2942
811.569	4674.19951
811.747	4719.67121
811.925	4953.43844
812.103	4773.42045
812.281	4820.43513
812.459	4924.23344
812.637	4901.50487
812.816	4825.65466
812.994	4906.84006
813.171	4921.40774
813.349	4843.4717
813.527	5030.14188
813.705	4898.31508
813.883	4851.24533
814.061	4970.14568
814.239	5095.49771
814.417	4996.79816
814.595	4948.45094
814.773	5052.99779
814.95	5061.90512
815.128	5001.54678
815.306	5171.78924
815.484	4933.41875
815.662	4969.11998
815.839	5161.25948
816.017	4793.26604
816.195	4983.20663
816.372	4892.88072
816.55	4947.10628
816.728	4735.48768
816.905	4752.10586
817.083	4726.26522
817.261	4611.74497
817.438	4763.9155
817.616	4790.18496
817.793	4521.47393
817.971	4549.20241
818.148	4618.16343
818.326	4527.0014
818.503	4302.6472
818.681	4335.21278
818.858	4019.18281
819.036	3954.42998
819.213	3717.53756
819.391	3583.99124
819.568	3383.03839
819.745	3235.11561
819.923	2998.30674
820.1	2863.80045
820.277	2706.15352
820.455	2545.0222
820.632	2353.12294
820.809	2214.3266
820.986	1996.94949
821.164	1753.46466
821.341	1518.83615
821.518	1247.26037
821.695	998.19261
821.872	816.52302
822.05	675.10499
822.227	586.45301
822.404	524.69553
822.581	486.28955
822.758	455.62053
822.935	438.19465
823.112	425.27122
823.289	429.96217
823.466	428.69533
823.643	460.91677
823.82	501.27889
823.997	574.51099
824.174	648.01904
824.351	762.04319
824.528	879.48773
824.705	1033.97429
824.882	1137.9949
825.059	1274.00493
825.236	1393.77473
825.412	1490.37475
825.589	1561.6032
825.766	1610.19269
825.943	1641.35908
826.12	1627.58776
826.296	1539.00637
826.473	1446.27896
826.65	1283.121
826.827	1193.50079
827.003	1096.36822
827.18	1038.59893
827.357	985.51457
827.533	989.44892
827.71	962.56705
827.887	969.33507
828.063	970.59104
828.24	1001.19842
828.416	1044.23439
828.593	1165.65271
828.769	1305.40147
828.946	1514.97465
829.122	1761.56703
829.299	2045.90192
829.475	2304.93361
829.652	2672.92693
829.828	2844.51186
830.005	3167.06537
830.181	3398.40796
830.357	3567.62414
830.534	3739.99945
830.71	3892.78002
830.886	4088.03967
831.063	4235.17236
831.239	4248.16913
831.415	4284.33034
831.592	4282.0106
831.768	4225.08492
831.944	4060.44274
832.12	4132.62702
832.296	3775.25118
832.473	3629.82883
832.649	3250.97732
832.825	3051.17532
833.001	2508.07747
833.177	2322.30466
833.353	1952.34519
833.529	1763.19673
833.705	1589.0934
833.881	1478.80862
834.058	1401.50211
834.234	1364.14104
834.41	1315.95222
834.586	1311.05689
834.761	1336.42873
834.937	1387.56282
835.113	1448.27304
835.289	1596.01827
835.465	1761.56401
835.641	2032.03149
835.817	2263.61947
835.993	2591.73206
836.169	2924.57149
836.344	3349.82698
836.52	3569.82278
836.696	3897.53122
836.872	4175.36037
837.048	4574.45739
837.223	4731.45443
837.399	5004.0684
837.575	5322.86868
837.75	5664.34128
837.926	5864.59645
838.102	5925.26022
838.277	6455.92483
838.453	6783.66997
838.628	6682.9101
838.804	6871.56458
838.98	6549.23671
839.155	6839.59103
839.331	6370.67813
839.506	6073.22433
839.682	5692.14525
839.857	5327.83842
840.033	5032.2316
840.208	4784.38241
840.384	4709.04792
840.559	4722.99237
840.734	4524.72509
840.91	4519.47178
841.085	4552.7273
841.26	4828.25472
841.436	5024.27364
841.611	5478.57664
841.786	5711.06683
841.962	6427.24506
842.137	6774.41528
842.312	7784.0669
842.487	7870.14193
842.663	8168.40833
842.838	8881.87468
843.013	9403.3688
843.188	9201.32633
843.363	9411.29502
843.538	9789.88547
843.714	10776.63828
843.889	10695.52639
844.064	11276.63146
844.239	10478.30189
844.414	11118.51024
844.589	10438.33178
844.764	11875.09799
844.939	11370.24665
845.114	11103.3164
845.289	11907.06777
845.464	12673.81651
845.639	11882.40133
845.814	12142.06109
845.989	12626.83874
846.163	13038.17442
846.338	12009.93859
846.513	13221.21023
846.688	12564.72751
846.863	12777.55929
847.038	12414.4268
847.212	12988.89145
847.387	12652.74281
847.562	12486.07461
847.737	13334.69044
847.911	13845.65179
848.086	13086.52424
848.261	13721.04804
848.435	13173.34905
848.61	13440.48469
848.785	13114.30429
848.959	14147.78892
849.134	14170.83889
849.308	13924.89744
849.483	14473.45794
849.658	14097.33357
849.832	13472.08312
850.007	13249.58916
850.181	14235.31402
850.356	14587.06776
850.53	14624.17044
850.705	14738.59706
850.879	14057.44775
851.053	14166.30745
851.228	15332.72472
851.402	13693.53949
851.577	14334.59721
851.751	14734.71532
851.925	13865.18272
852.099	13159.38134
852.274	14773.03251
852.448	14176.55875
852.622	13567.34742
852.797	15136.67414
852.971	13461.78366
853.145	14322.64207
853.319	14989.55217
853.493	14929.96382
853.668	14142.65005
853.842	15603.67983
854.016	15254.89105
854.19	14919.02392
854.364	14631.51433
854.538	14174.97724
854.712	14665.88064
854.886	13938.2859
855.06	15229.42162
855.234	14768.03419
855.408	15749.39108
855.582	15237.1687
855.756	13970.38845
855.93	14813.39096
856.104	15200.36583
856.278	15200.33112
856.452	15929.02335
856.626	15973.81918
856.8	14498.20665
856.973	17125.62728
857.147	15544.80164
857.321	14771.6198
857.495	15599.49655
857.669	13990.55119
857.842	14295.32424
858.016	14343.57141
858.19	15219.83865
858.364	13788.16599
858.537	15003.25431
858.711	14297.28686
858.885	14744.16268
859.058	13506.45817
859.232	14048.0036
859.405	15647.05988
859.579	14563.60655
859.753	15390.69661
859.926	16147.18093
860.1	14099.87341
860.273	15144.37631
860.447	15257.01465
860.62	13578.34947
860.794	15659.38907
860.967	14581.78448
861.141	14116.26211
861.314	15644.88034
861.487	16527.51061
861.661	15958.83647
861.834	14414.77755
862.008	14079.24188
862.181	14848.42136
862.354	13753.40198
862.528	14960.01596
862.701	14709.25345
862.874	15891.02774
863.047	13601.34799
863.221	14876.38273
863.394	13660.49157
863.567	15159.69138
863.74	13148.9468
863.913	13831.57753
864.087	13492.10325
864.26	14028.22575
864.433	14916.9202
864.606	13723.56177
864.779	15593.65427
864.952	14793.30755
865.125	13188.0758
865.298	13751.7933
865.471	14637.3178
865.644	15827.47683
865.817	14537.31754
865.99	14938.02525
866.163	14761.64284
866.336	14521.46625
866.509	14883.67044
866.682	17978.38798
866.855	15502.56978
867.028	14983.16798
867.2	14707.71011
867.373	14960.45415
867.546	15716.96635
867.719	16495.26279
867.892	15307.77002
868.064	15579.76537
868.237	15677.66772
868.41	14898.80212
868.583	15102.37178
868.755	15104.37666
868.928	17279.37911
869.101	14546.39693
869.273	13975.85604
869.446	16101.21943
869.619	14890.82255
869.791	15227.55347
869.964	14498.3708
870.136	15336.84526
870.309	13457.17415
870.481	14352.12089
870.654	14640.30352
870.826	13491.87696
870.999	14916.80163
871.171	14281.74434
871.344	14159.19569
871.516	13858.67542
871.689	14132.66674
871.861	13389.16024
872.033	13043.99159
872.206	13905.5893
872.378	13147.01701
872.55	14099.13963
872.723	13983.30026
872.895	14567.1212
873.067	14238.36969
873.24	14187.66629
873.412	13206.92272
873.584	13832.87002
873.756	13811.89358
873.928	14204.70332
874.101	13196.49598
874.273	14317.76889
874.445	12810.38459
874.617	13134.49475
874.789	13315.89539
874.961	13738.89514
875.133	14469.76825
875.305	13349.01813
875.477	12919.89379
875.649	12742.28456
875.821	13814.96421
875.993	12849.13904
876.165	13105.38065
876.337	13826.33737
876.509	13155.6256
876.681	12665.0452
876.853	12378.72453
877.025	13064.07861
877.197	12657.92273
877.369	12646.25923
877.541	11572.72739
877.712	11811.10316
877.884	11799.91523
878.056	11569.15196
878.228	10066.60058
878.4	10740.69883
878.571	9551.23915
878.743	9140.47191
878.915	8370.98287
879.086	7745.14793
879.258	6994.6127
879.43	6476.04348
879.601	5684.26626
879.773	4971.8498
879.945	3901.63323
880.116	3297.46209
880.288	2556.38047
880.459	2097.14611
880.631	1708.29179
880.802	1484.99754
880.974	1244.67767
881.145	1125.90805
881.317	1007.30548
881.488	960.18052
881.66	894.85764
881.831	884.21777
882.002	851.88045
882.174	878.11787
882.345	908.11537
882.517	986.47731
882.688	1056.28666
882.859	1204.18344
883.03	1319.23097
883.202	1536.09791
883.373	1758.39056
883.544	2048.11791
883.715	2327.47067
883.887	2714.98887
884.058	3014.82567
884.229	3418.44366
884.4	3789.11542
884.571	4250.1027
884.742	4537.43119
884.914	5154.17716
885.085	5360.86764
885.256	5634.19057
885.427	5990.69983
885.598	6346.08227
885.769	6731.17881
885.94	7001.88535
886.111	6967.76199
886.282	7422.19942
886.453	8176.87202
886.624	8474.15025
886.795	8468.92869
886.966	9236.95144
887.136	9114.56565
887.307	10604.45451
887.478	9984.11622
887.649	11068.07025
887.82	10509.70038
887.991	12070.60688
888.161	11914.40931
888.332	12381.16645
888.503	12469.25189
888.674	13636.97175
888.844	12872.22302
889.015	13541.11673
889.186	13175.16553
889.356	14089.25972
889.527	14863.25403
889.698	14937.73489
889.868	14793.42959
890.039	13701.52595
890.209	14556.82467
890.38	15066.39988
890.551	15094.58123
890.721	15418.88528
890.892	15482.60799
891.062	15655.49563
891.233	15013.06398
891.403	16404.96618
891.574	15276.62798
891.744	15466.59475
891.914	18712.14726
892.085	15541.41926
892.255	15800.36439
892.425	15148.67487
892.596	16633.5062
892.766	14952.92336
892.936	14956.42295
893.107	14326.16797
893.277	13387.53934
893.447	12089.70932
893.618	10827.56358
893.788	9038.70482
893.958	8305.49989
894.128	7775.24346
894.298	6555.51688
894.468	6107.14116
894.639	5422.53008
894.809	5367.02301
894.979	5010.57212
895.149	4890.09354
895.319	4725.87635
895.489	4831.33546
895.659	4851.22965
895.829	5200.21528
895.999	5368.32918
896.169	6481.56284
896.339	6833.13946
896.509	7838.77394
896.679	8835.14246
896.849	9668.23789
897.019	10699.48273
897.189	11938.33321
897.358	13256.41056
897.528	14878.0086
897.698	13853.93932
897.868	15581.77961
898.038	14735.29241
898.208	17013.81871
898.377	19499.79034
898.547	19522.34487
898.717	23078.05984
898.886	20489.75374
899.056	19742.28868
899.226	23150.4584
899.395	24239.59203
899.565	23007.97808
899.735	22618.59546
899.904	25896.68431
900.074	22765.9132
900.244	26286.25105
900.413	31734.33109
900.583	28715.9728
900.752	29037.68665
900.922	25540.94486
901.091	25015.26713
901.261	28353.23376
901.43	25485.91757
901.599	32260.25073
901.769	29704.72119
901.938	24739.10729
902.108	29484.0169
902.277	26100.77372
902.446	23218.45924
902.616	22696.26602
902.785	21620.08175
902.954	17431.4093
903.124	14186.24927
903.293	12858.16477
903.462	10324.86373
903.631	8345.50634
903.801	6828.26464
903.97	6255.36571
904.139	6072.2588
904.308	5617.59218
904.477	5321.56785
904.646	5324.4449
904.816	4965.54013
904.985	5283.08481
905.154	5470.1289
