Data from WindowProjectSample_Transmission__95__00095.txt Node

Date: Sat May 03 18:28:23 EDT 2025
User: jessi
Spectrometer: SR400872
Trigger mode: 0
Integration Time (sec): 5.000050E-1
Scans to average: 10
Electric dark correction enabled: true
Nonlinearity correction enabled: true
Boxcar width: 0
XAxis mode: Wavelengths
Number of Pixels in Spectrum: 3648
>>>>>Begin Spectral Data<<<<<
184.909	-5447.4784
185.132	12143.5429
185.355	-13268.32984
185.578	79279.71544
185.801	-1022.24592
186.024	6014.86656
186.247	-9429.54364
186.47	-6928.28256
186.693	2955.16044
186.916	-1225.78297
187.139	30819.69916
187.362	13157.55222
187.585	-3305.57545
187.808	-4640.20292
188.031	277.19204
188.254	10922.50227
188.476	-583.91374
188.699	-4815.18504
188.922	533.3266
189.145	5683.58172
189.368	2223.39998
189.591	983.13668
189.813	12600.39889
190.036	-65608.88562
190.259	1816.82578
190.482	2408.51126
190.705	5998.34238
190.927	4679.33475
191.15	3819.46298
191.373	6706.85677
191.595	1476.40212
191.818	2920.84557
192.041	482.24426
192.263	3499.49525
192.486	970.97702
192.709	7971.52965
192.931	36973.88658
193.154	3342.0534
193.377	2277.27051
193.599	1786.32998
193.822	915.79273
194.044	1745.79699
194.267	1707.35452
194.489	-307.36069
194.712	2843.10451
194.934	7329.14175
195.157	-11035.30414
195.379	1919.89789
195.602	18822.36414
195.824	4016.45613
196.047	1023.74694
196.269	4976.7373
196.492	28055.83432
196.714	2693.88706
196.936	3488.45735
197.159	5836.10743
197.381	3399.94149
197.604	425.03484
197.826	1912.96375
198.048	1139.37817
198.271	3073.04268
198.493	4006.07072
198.715	5994.33454
198.938	619.08036
199.16	1521.85107
199.382	4823.80718
199.604	-33113.01607
199.827	2616.40914
200.049	1119.13462
200.271	2450.90528
200.493	8380.82499
200.715	3104.44735
200.938	70458.72484
201.16	1910.44784
201.382	2561.84101
201.604	1900.91445
201.826	5288.64582
202.048	1265.46769
202.27	4477.38516
202.492	1766.37033
202.715	1495.65672
202.937	-32069.54533
203.159	5295.55057
203.381	2239.35036
203.603	8406.25541
203.825	1408.80618
204.047	1685.49965
204.269	2129.60885
204.491	1807.33214
204.713	1415.66469
204.935	2102.99639
205.156	1262.66983
205.378	2007.24231
205.6	1511.79856
205.822	8172.3873
206.044	991.08107
206.266	1281.918
206.488	2894.60869
206.71	5127.94834
206.932	1733.92215
207.153	4965.6774
207.375	1181.03579
207.597	4516.28151
207.819	1366.54751
208.041	3398.87487
208.262	1021.92539
208.484	3165.16289
208.706	1217.98966
208.927	2654.00643
209.149	1523.35761
209.371	2345.83671
209.593	310.71619
209.814	5470.67748
210.036	17220.90082
210.258	814.00753
210.479	1283.39308
210.701	2237.48716
210.922	2176.87686
211.144	1699.6198
211.366	2859.55072
211.587	700.27605
211.809	2726.71571
212.03	2071.89951
212.252	513.98247
212.473	1169.27765
212.695	755.48415
212.916	1549.13828
213.138	524.87785
213.359	3606.84499
213.581	1675.0483
213.802	-3448.41113
214.024	2897.5971
214.245	1180.37241
214.466	613.42757
214.688	1517.46858
214.909	1944.92352
215.131	2708.68216
215.352	1036.19589
215.573	3810.48609
215.795	2350.05967
216.016	3189.23307
216.237	765.05552
216.459	2983.53412
216.68	12546.67266
216.901	1441.36593
217.122	1080.06199
217.344	1593.27447
217.565	3876.19452
217.786	2177.85302
218.007	982.07571
218.228	3134.92921
218.45	2136.61958
218.671	755.78317
218.892	1340.62839
219.113	922.1321
219.334	-254.05313
219.555	1462.00273
219.776	1503.8311
219.997	4097.52708
220.219	1973.3372
220.44	682.3391
220.661	554.65495
220.882	1154.32138
221.103	720.11629
221.324	833.6233
221.545	1171.76816
221.766	1591.34232
221.987	472.41148
222.208	696.79893
222.429	1307.54382
222.65	168.15654
222.87	320.84407
223.091	598.1108
223.312	491.02777
223.533	634.63465
223.754	1887.01537
223.975	1143.3035
224.196	578.09252
224.417	663.62997
224.637	340.40531
224.858	36.38842
225.079	429.11311
225.3	467.6353
225.521	1250.65947
225.741	317.45761
225.962	372.34497
226.183	103.54733
226.404	512.31473
226.624	357.64267
226.845	347.08661
227.066	288.83082
227.286	197.3152
227.507	95.44465
227.728	97.50556
227.948	178.33906
228.169	60.85553
228.389	68.11813
228.61	40.00804
228.831	54.43817
229.051	3.87966
229.272	32.4828
229.492	47.90743
229.713	13.96868
229.933	35.64275
230.154	28.24795
230.374	49.07422
230.595	36.387
230.815	20.08027
231.036	36.38902
231.256	-5.60628
231.477	60.19598
231.697	34.21519
231.917	34.86973
232.138	46.32385
232.358	101.42911
232.579	89.22311
232.799	17.4005
233.019	82.83453
233.24	98.94727
233.46	40.15177
233.68	60.96614
233.901	42.21442
234.121	25.62062
234.341	11.95773
234.561	-1.32108
234.782	22.16693
235.002	63.75115
235.222	-3.85609
235.442	54.57911
235.662	29.07186
235.883	57.36724
236.103	51.5594
236.323	35.56121
236.543	28.46424
236.763	40.46947
236.983	38.92812
237.203	40.69721
237.423	57.66233
237.643	83.69859
237.864	72.9789
238.084	19.70743
238.304	24.04627
238.524	43.80652
238.744	37.60815
238.964	61.45157
239.184	59.06001
239.404	62.36573
239.624	34.05995
239.843	56.97087
240.063	33.80759
240.283	22.66762
240.503	25.41438
240.723	24.70658
240.943	13.85765
241.163	18.8173
241.383	14.75445
241.603	8.02925
241.822	10.23156
242.042	6.91945
242.262	9.16264
242.482	9.8922
242.702	11.26158
242.921	3.77043
243.141	7.31926
243.361	6.85355
243.581	10.47884
243.8	8.12882
244.02	5.76916
244.24	9.6833
244.459	9.93431
244.679	19.05829
244.899	12.42818
245.118	14.76184
245.338	12.4928
245.558	15.42071
245.777	8.86179
245.997	10.41792
246.216	10.90655
246.436	6.40692
246.655	4.73532
246.875	3.19807
247.094	6.7218
247.314	2.44799
247.533	4.0727
247.753	4.87039
247.972	4.03868
248.192	1.49925
248.411	2.43464
248.631	3.9956
248.85	4.9888
249.07	4.48823
249.289	7.06961
249.508	5.37541
249.728	8.58385
249.947	8.32804
250.166	9.27335
250.386	5.22413
250.605	7.47786
250.824	11.81763
251.044	9.31455
251.263	25.59702
251.482	14.99993
251.701	12.27606
251.921	0.86687
252.14	4.16218
252.359	4.92095
252.578	11.26079
252.798	3.98457
253.017	9.78367
253.236	5.39269
253.455	6.69275
253.674	12.66077
253.893	6.08085
254.112	8.2516
254.331	11.85125
254.551	11.31323
254.77	4.25281
254.989	14.7857
255.208	11.83571
255.427	16.02477
255.646	13.20173
255.865	23.10455
256.084	8.30075
256.303	11.0196
256.522	14.45246
256.741	4.36341
256.96	2.73065
257.179	8.77538
257.397	11.91416
257.616	6.57178
257.835	7.26066
258.054	16.53471
258.273	10.97989
258.492	12.1954
258.711	7.49742
258.93	3.37467
259.148	4.65017
259.367	5.27089
259.586	6.40424
259.805	2.71881
260.023	5.44745
260.242	4.08308
260.461	3.00936
260.68	1.75859
260.898	4.96313
261.117	1.74682
261.336	1.27985
261.554	4.04312
261.773	4.32916
261.992	0.94217
262.21	3.96258
262.429	4.20677
262.648	7.72835
262.866	8.72994
263.085	6.43246
263.303	5.42633
263.522	9.95913
263.74	9.67718
263.959	16.41101
264.178	8.29587
264.396	6.88014
264.615	5.30971
264.833	12.29425
265.051	10.46674
265.27	11.30024
265.488	12.31123
265.707	7.20601
265.925	12.18116
266.144	5.21841
266.362	6.46398
266.58	6.47704
266.799	5.77834
267.017	6.53858
267.235	5.91111
267.454	4.07526
267.672	2.22621
267.89	5.02558
268.109	4.98836
268.327	5.23811
268.545	1.47451
268.763	4.44496
268.982	2.29681
269.2	5.43413
269.418	3.59467
269.636	2.75702
269.854	4.90707
270.073	4.03659
270.291	2.16997
270.509	2.26555
270.727	4.90314
270.945	8.52131
271.163	7.93366
271.381	1.87363
271.599	3.29143
271.817	5.89436
272.036	2.11924
272.254	3.51769
272.472	3.06201
272.69	2.56629
272.908	2.75987
273.126	4.62995
273.344	5.84329
273.562	2.2376
273.779	2.91811
273.997	4.65814
274.215	4.57475
274.433	3.54672
274.651	5.17879
274.869	5.38006
275.087	3.24757
275.305	4.70478
275.523	3.05761
275.74	3.35934
275.958	6.29137
276.176	9.13969
276.394	2.97296
276.612	3.73068
276.829	3.49145
277.047	3.27651
277.265	3.35892
277.483	4.25321
277.7	4.70561
277.918	3.91573
278.136	7.12584
278.353	3.61693
278.571	2.06618
278.789	5.62738
279.006	1.35282
279.224	3.39441
279.442	5.13993
279.659	3.8626
279.877	2.65939
280.094	6.03857
280.312	0.96954
280.529	3.96656
280.747	1.41136
280.964	3.0474
281.182	6.47208
281.399	3.07198
281.617	3.99083
281.834	2.83636
282.052	2.64553
282.269	3.57141
282.487	3.10398
282.704	2.58182
282.921	2.40255
283.139	3.82835
283.356	4.83323
283.574	4.30091
283.791	2.18685
284.008	5.81338
284.226	3.3417
284.443	3.78379
284.66	4.98068
284.877	3.8744
285.095	2.4204
285.312	1.87493
285.529	1.15588
285.746	0.88744
285.964	2.51568
286.181	1.60802
286.398	2.30508
286.615	3.03305
286.832	3.01555
287.05	0.74777
287.267	2.15641
287.484	2.09964
287.701	3.14634
287.918	2.93398
288.135	3.0008
288.352	1.23629
288.569	1.69496
288.786	2.78268
289.003	2.28076
289.22	3.14186
289.437	1.82162
289.654	3.28497
289.871	3.44559
290.088	3.32097
290.305	2.5919
290.522	2.00103
290.739	2.37751
290.956	3.65722
291.173	4.16387
291.39	3.82344
291.607	2.74048
291.824	2.17665
292.04	1.3904
292.257	3.31253
292.474	3.697
292.691	2.35767
292.908	1.137
293.125	1.96159
293.341	1.34701
293.558	5.51233
293.775	2.38583
293.992	2.2722
294.208	1.04254
294.425	1.50452
294.642	2.21056
294.858	3.11229
295.075	0.7896
295.292	2.37826
295.508	2.74014
295.725	4.02449
295.942	2.0959
296.158	1.42285
296.375	2.21184
296.591	1.82387
296.808	1.89368
297.024	2.06763
297.241	2.49107
297.458	2.6153
297.674	0.30868
297.891	2.08175
298.107	1.56429
298.323	1.19878
298.54	3.07505
298.756	1.5074
298.973	0.85881
299.189	3.1417
299.406	1.28966
299.622	3.23577
299.838	3.20725
300.055	2.83428
300.271	0.84774
300.487	0.98135
300.704	1.41311
300.92	1.02718
301.136	4.36948
301.353	3.26344
301.569	2.19312
301.785	2.45819
302.001	2.88639
302.218	2.57931
302.434	2.63645
302.65	0.77375
302.866	1.81016
303.083	4.43304
303.299	4.1917
303.515	2.31034
303.731	2.44859
303.947	0.7375
304.163	1.66881
304.379	2.24367
304.595	2.74903
304.812	1.45407
305.028	1.46344
305.244	1.73308
305.46	2.8883
305.676	3.17058
305.892	3.69716
306.108	2.55623
306.324	1.71813
306.54	4.12282
306.756	2.81353
306.972	2.64635
307.187	1.96615
307.403	3.7772
307.619	1.77723
307.835	3.28515
308.051	3.49834
308.267	1.1589
308.483	3.03939
308.699	2.57564
308.914	2.38525
309.13	2.29558
309.346	0.66078
309.562	1.13892
309.778	0.63009
309.993	2.84612
310.209	1.91757
310.425	1.05105
310.641	1.75587
310.856	1.01169
311.072	1.03548
311.288	2.09282
311.503	2.20986
311.719	0.49343
311.935	0.39641
312.15	2.33265
312.366	2.02822
312.581	2.53805
312.797	2.08391
313.013	2.72043
313.228	1.57704
313.444	2.20043
313.659	1.39951
313.875	2.4703
314.09	1.90737
314.306	3.39855
314.521	2.9809
314.737	2.85069
314.952	2.41984
315.168	2.04388
315.383	2.68151
315.599	1.95898
315.814	1.72874
316.029	3.16594
316.245	0.78982
316.46	0.73797
316.675	3.55604
316.891	4.25974
317.106	5.08167
317.321	2.70939
317.537	2.60833
317.752	2.94966
317.967	3.14678
318.183	1.46976
318.398	1.81469
318.613	3.26235
318.828	3.51006
319.043	3.02574
319.259	1.8759
319.474	2.62887
319.689	3.45742
319.904	0.56358
320.119	3.08759
320.334	2.51544
320.549	1.95101
320.765	3.4033
320.98	2.38952
321.195	3.00092
321.41	1.98728
321.625	3.14139
321.84	4.18613
322.055	4.00021
322.27	1.49465
322.485	1.26918
322.7	2.48556
322.915	3.28234
323.13	1.39967
323.345	3.67534
323.56	3.01156
323.775	2.82406
323.989	2.9072
324.204	2.44004
324.419	3.01144
324.634	1.02139
324.849	2.19563
325.064	4.25902
325.279	3.15337
325.493	2.80122
325.708	3.30961
325.923	1.44303
326.138	1.5858
326.352	3.87207
326.567	3.1567
326.782	1.75923
326.997	1.52168
327.211	2.89856
327.426	2.8017
327.641	1.87024
327.855	0.65304
328.07	2.65327
328.285	3.92698
328.499	1.92212
328.714	2.62342
328.928	3.03081
329.143	2.02048
329.358	3.20879
329.572	3.41553
329.787	3.39821
330.001	4.75245
330.216	1.01035
330.43	3.81195
330.645	3.97625
330.859	2.92694
331.074	1.78962
331.288	2.5271
331.503	3.46849
331.717	1.39662
331.931	2.04683
332.146	2.43067
332.36	4.18933
332.575	2.83407
332.789	2.68739
333.003	2.01666
333.218	2.82697
333.432	2.09756
333.646	2.84978
333.86	3.77144
334.075	3.8717
334.289	1.83149
334.503	1.33065
334.717	2.70743
334.932	2.63909
335.146	3.4349
335.36	1.93332
335.574	2.95028
335.788	2.79053
336.003	3.28743
336.217	2.85619
336.431	2.86055
336.645	1.71666
336.859	1.19152
337.073	1.98593
337.287	2.45302
337.501	1.38618
337.715	2.56213
337.929	2.98109
338.143	1.31526
338.357	2.32758
338.571	1.47296
338.785	2.67754
338.999	1.93085
339.213	1.70774
339.427	0.94652
339.641	3.23925
339.855	2.06468
340.069	1.85424
340.283	3.22008
340.497	3.94298
340.711	2.56799
340.924	1.90798
341.138	1.10035
341.352	1.05883
341.566	2.4165
341.78	0.61646
341.993	1.72995
342.207	1.28229
342.421	2.34129
342.635	2.27703
342.848	1.81664
343.062	0.272
343.276	1.56562
343.49	4.09484
343.703	1.45201
343.917	2.8503
344.131	3.03576
344.344	1.51688
344.558	1.7433
344.771	1.3895
344.985	3.23254
345.199	3.6946
345.412	2.38277
345.626	2.37221
345.839	0.72494
346.053	1.12156
346.266	1.25518
346.48	2.79465
346.693	2.41943
346.907	2.53919
347.12	1.41424
347.334	2.42171
347.547	2.55779
347.76	1.92108
347.974	3.28898
348.187	2.53858
348.401	1.85993
348.614	1.56847
348.827	1.8196
349.041	2.75002
349.254	0.63328
349.467	2.04943
349.681	1.07217
349.894	1.67732
350.107	3.20157
350.32	3.55818
350.534	0.63449
350.747	1.61679
350.96	1.28593
351.173	1.49204
351.386	1.65395
351.6	1.67902
351.813	1.48175
352.026	2.00189
352.239	0.87015
352.452	1.81783
352.665	2.70902
352.878	1.79126
353.092	3.91306
353.305	2.5183
353.518	2.15884
353.731	1.28364
353.944	3.19385
354.157	1.35948
354.37	1.13701
354.583	1.20677
354.796	0.59677
355.009	2.91749
355.222	2.01319
355.435	2.08083
355.647	2.88011
355.86	1.03389
356.073	1.87032
356.286	1.55114
356.499	2.4861
356.712	2.12581
356.925	2.38117
357.138	2.69717
357.35	1.06888
357.563	1.52953
357.776	1.94799
357.989	1.51934
358.201	2.35677
358.414	1.84235
358.627	2.73499
358.84	1.65722
359.052	1.04936
359.265	0.83611
359.478	2.69284
359.69	-0.31733
359.903	2.39807
360.116	2.42166
360.328	0.40748
360.541	2.36756
360.753	0.97988
360.966	1.2469
361.179	1.3532
361.391	1.23901
361.604	0.79582
361.816	1.21611
362.029	1.09957
362.241	0.90717
362.454	0.99905
362.666	0.98966
362.879	1.49315
363.091	1.34328
363.304	0.83333
363.516	1.48072
363.728	0.60887
363.941	1.94948
364.153	1.03593
364.366	-0.21148
364.578	0.81957
364.79	2.05196
365.003	1.46204
365.215	1.20542
365.427	1.93441
365.639	2.48886
365.852	1.79601
366.064	3.13501
366.276	1.18679
366.488	1.8846
366.701	1.2428
366.913	1.5491
367.125	1.55875
367.337	1.25008
367.549	1.14479
367.762	1.75743
367.974	1.71331
368.186	0.90234
368.398	2.3812
368.61	2.0276
368.822	2.12195
369.034	1.61754
369.246	2.06223
369.458	3.44685
369.67	0.73921
369.882	3.17265
370.094	0.20917
370.306	2.92305
370.518	1.49775
370.73	1.10344
370.942	0.99072
371.154	1.27034
371.366	1.08623
371.578	1.79085
371.79	0.81957
372.002	2.54892
372.214	2.87592
372.425	1.68382
372.637	2.5004
372.849	1.82612
373.061	-0.00022
373.273	1.92728
373.484	1.98184
373.696	2.23828
373.908	-0.09204
374.12	2.46499
374.331	1.91907
374.543	0.78141
374.755	0.97591
374.967	1.6504
375.178	2.16663
375.39	1.39729
375.602	1.60105
375.813	0.63647
376.025	0.58479
376.236	1.54279
376.448	1.67043
376.66	1.07061
376.871	1.183
377.083	2.25345
377.294	2.35411
377.506	1.01785
377.717	2.46749
377.929	1.5903
378.14	0.70908
378.352	1.87727
378.563	1.73711
378.775	2.35662
378.986	0.97638
379.197	1.49927
379.409	1.08295
379.62	2.14355
379.832	1.79313
380.043	1.32354
380.254	1.5769
380.466	0.60488
380.677	3.54172
380.888	3.25921
381.1	3.30488
381.311	3.21473
381.522	1.39316
381.733	3.76106
381.945	1.31265
382.156	1.64341
382.367	1.08941
382.578	3.62985
382.789	3.42309
383.001	1.267
383.212	2.35359
383.423	2.51865
383.634	2.36993
383.845	1.72755
384.056	1.255
384.267	1.51175
384.478	1.36139
384.69	0.71221
384.901	1.88467
385.112	1.87373
385.323	2.55171
385.534	1.78436
385.745	1.64815
385.956	1.77295
386.167	0.69905
386.378	1.77448
386.588	0.48237
386.799	0.94958
387.01	0.2772
387.221	2.04441
387.432	1.31452
387.643	2.77937
387.854	1.31395
388.065	1.19896
388.275	1.387
388.486	1.15026
388.697	1.33327
388.908	1.18672
389.119	2.30719
389.329	2.7077
389.54	1.59963
389.751	1.63249
389.962	2.28495
390.172	1.60057
390.383	1.03256
390.594	0.90862
390.804	1.01052
391.015	0.87432
391.226	1.42503
391.436	1.76676
391.647	1.66636
391.858	1.83295
392.068	0.18675
392.279	0.57745
392.489	1.37943
392.7	2.22833
392.91	0.58124
393.121	0.84015
393.331	1.71034
393.542	2.22983
393.752	1.80868
393.963	1.43014
394.173	1.35822
394.384	1.85465
394.594	1.30074
394.804	0.60187
395.015	1.45342
395.225	1.74775
395.436	0.49906
395.646	1.87488
395.856	0.77101
396.067	0.4909
396.277	2.17911
396.487	1.67137
396.697	1.33674
396.908	2.15838
397.118	2.03491
397.328	1.52228
397.538	2.24499
397.749	0.89532
397.959	2.02299
398.169	1.98216
398.379	0.49401
398.589	2.04788
398.8	1.44863
399.01	1.28173
399.22	1.36464
399.43	3.13233
399.64	1.15983
399.85	1.8729
400.06	1.32349
400.27	1.01898
400.48	1.47727
400.69	2.62117
400.9	1.15454
401.11	0.98653
401.32	2.26874
401.53	1.12104
401.74	2.6292
401.95	2.05428
402.16	0.84363
402.37	1.84047
402.58	0.95874
402.79	2.00994
403	2.16042
403.209	1.11743
403.419	1.99223
403.629	1.11801
403.839	2.04311
404.049	2.05509
404.258	0.99586
404.468	0.83695
404.678	1.89515
404.888	1.89536
405.097	0.8768
405.307	1.3169
405.517	1.80635
405.727	1.60403
405.936	1.14859
406.146	1.62918
406.356	2.42571
406.565	1.51246
406.775	1.18217
406.984	1.12634
407.194	2.71189
407.404	1.55443
407.613	1.84047
407.823	2.03532
408.032	2.29331
408.242	2.30036
408.451	1.24064
408.661	1.38386
408.87	2.79024
409.08	1.21337
409.289	1.87803
409.499	1.71042
409.708	1.63615
409.918	0.19992
410.127	1.55876
410.336	2.59242
410.546	2.00925
410.755	1.32384
410.964	1.19429
411.174	1.00419
411.383	1.97694
411.592	1.98788
411.802	0.99584
412.011	2.22079
412.22	1.6175
412.429	2.65426
412.639	2.57713
412.848	2.46244
413.057	2.67192
413.266	2.48586
413.475	1.69483
413.685	2.29059
413.894	2.23749
414.103	2.46014
414.312	2.1664
414.521	1.61714
414.73	1.79162
414.939	3.05523
415.148	2.10906
415.357	1.91505
415.566	1.45907
415.776	1.48274
415.985	1.24435
416.194	2.31569
416.403	2.77963
416.611	0.82451
416.82	1.18155
417.029	1.61021
417.238	1.13377
417.447	0.97233
417.656	1.2555
417.865	1.01792
418.074	1.27943
418.283	1.56399
418.492	2.21315
418.7	2.07299
418.909	2.87242
419.118	1.83664
419.327	2.08024
419.536	1.8626
419.744	1.43047
419.953	2.5904
420.162	2.61319
420.371	1.36329
420.579	1.30978
420.788	2.40966
420.997	2.44392
421.205	2.35494
421.414	2.11718
421.623	2.07387
421.831	1.67029
422.04	2.57068
422.249	1.54709
422.457	2.28497
422.666	1.65605
422.874	2.76473
423.083	2.67331
423.291	2.54202
423.5	2.16463
423.708	2.469
423.917	2.85198
424.125	2.1693
424.334	1.96251
424.542	3.94326
424.751	2.9708
424.959	2.829
425.167	3.27741
425.376	3.06133
425.584	2.27832
425.793	2.58005
426.001	1.67203
426.209	2.67281
426.418	1.60478
426.626	1.82692
426.834	1.50022
427.042	1.94578
427.251	1.52875
427.459	2.38616
427.667	1.92733
427.875	1.13978
428.084	1.4341
428.292	2.48606
428.5	2.10826
428.708	1.31466
428.916	1.23564
429.124	1.94234
429.333	1.74279
429.541	1.68118
429.749	1.89494
429.957	1.78481
430.165	3.18985
430.373	1.0709
430.581	1.90675
430.789	2.63421
430.997	1.4774
431.205	1.4848
431.413	1.91183
431.621	1.62037
431.829	2.1891
432.037	1.58377
432.245	2.10749
432.453	2.01694
432.661	1.70187
432.869	3.10833
433.076	1.3369
433.284	1.90043
433.492	2.39427
433.7	2.81193
433.908	1.75518
434.116	2.12639
434.323	2.06094
434.531	1.96004
434.739	2.29264
434.947	2.43185
435.154	2.32019
435.362	1.92569
435.57	1.66843
435.778	1.55373
435.985	2.14605
436.193	1.63167
436.401	2.66544
436.608	2.03059
436.816	1.64645
437.023	2.92099
437.231	2.95005
437.439	2.06937
437.646	2.25776
437.854	2.14949
438.061	2.36149
438.269	1.9357
438.476	2.51332
438.684	2.15613
438.891	1.95631
439.099	1.69366
439.306	1.24062
439.514	1.65589
439.721	2.53971
439.929	1.80893
440.136	2.64324
440.343	2.6557
440.551	2.16473
440.758	3.9174
440.965	2.90377
441.173	2.51385
441.38	2.00064
441.587	2.57751
441.795	2.09304
442.002	2.48076
442.209	2.47765
442.416	2.59154
442.624	2.4322
442.831	2.45422
443.038	1.77647
443.245	1.46101
443.452	1.84707
443.66	2.61106
443.867	1.57067
444.074	1.78855
444.281	1.71572
444.488	2.01115
444.695	2.15553
444.902	1.93436
445.109	2.71777
445.316	2.18865
445.523	2.11641
445.73	1.89625
445.937	2.59447
446.144	3.04431
446.351	3.03421
446.558	2.08872
446.765	3.37724
446.972	3.48616
447.179	2.63308
447.386	3.63549
447.593	2.31953
447.8	3.61111
448.007	2.30355
448.214	2.38711
448.42	1.95122
448.627	2.9854
448.834	2.11041
449.041	2.10823
449.248	1.9643
449.454	2.64827
449.661	2.92351
449.868	1.85149
450.075	1.72336
450.281	0.99966
450.488	1.39808
450.695	1.68023
450.901	1.67401
451.108	1.81416
451.315	2.64578
451.521	2.08893
451.728	2.58148
451.935	1.68625
452.141	1.9994
452.348	2.0291
452.554	2.03759
452.761	1.8007
452.967	2.93218
453.174	2.19729
453.38	2.25721
453.587	1.42188
453.793	2.13611
454	2.55135
454.206	3.22071
454.413	2.82462
454.619	2.37066
454.825	1.65842
455.032	2.48381
455.238	2.69709
455.445	1.45294
455.651	2.30525
455.857	1.06154
456.064	1.94604
456.27	1.94154
456.476	2.04904
456.682	1.37557
456.889	2.30085
457.095	2.52241
457.301	3.54376
457.507	2.18629
457.714	2.14786
457.92	1.96258
458.126	1.67881
458.332	1.90254
458.538	1.81056
458.744	1.9567
458.951	2.05749
459.157	3.5272
459.363	2.63414
459.569	2.42745
459.775	3.2544
459.981	2.14588
460.187	2.76195
460.393	3.23879
460.599	3.71601
460.805	2.80722
461.011	2.67112
461.217	3.08863
461.423	2.96781
461.629	2.17439
461.835	2.57023
462.041	2.09779
462.247	3.10397
462.453	2.07187
462.658	2.18855
462.864	2.69685
463.07	2.46837
463.276	2.33238
463.482	2.41705
463.688	3.00981
463.893	1.85833
464.099	2.14704
464.305	3.15348
464.511	1.95675
464.716	2.29776
464.922	2.675
465.128	1.83768
465.333	3.33349
465.539	2.60615
465.745	2.12136
465.95	2.46546
466.156	3.83832
466.362	2.93049
466.567	2.26804
466.773	2.19397
466.978	3.34678
467.184	1.75948
467.389	1.19155
467.595	2.67592
467.8	1.81132
468.006	3.1392
468.211	2.95736
468.417	1.7194
468.622	2.57403
468.828	2.71316
469.033	2.47648
469.239	4.02206
469.444	2.02104
469.649	3.00613
469.855	2.29113
470.06	2.53316
470.266	1.7727
470.471	2.72587
470.676	2.60506
470.881	1.49319
471.087	3.03516
471.292	3.47475
471.497	1.65882
471.703	2.18805
471.908	2.10483
472.113	2.54192
472.318	2.8855
472.523	1.88134
472.729	2.66079
472.934	2.75843
473.139	2.13463
473.344	2.76372
473.549	3.12741
473.754	1.9353
473.959	3.60556
474.164	2.0436
474.369	2.37625
474.575	2.9401
474.78	2.5025
474.985	2.19679
475.19	1.4389
475.395	2.05197
475.6	2.30598
475.804	3.20844
476.009	2.32456
476.214	2.43034
476.419	2.10856
476.624	1.39149
476.829	1.93628
477.034	2.79307
477.239	1.87196
477.444	2.4438
477.648	2.60835
477.853	2.62183
478.058	2.12441
478.263	1.9563
478.468	1.67745
478.672	1.76623
478.877	2.94759
479.082	3.33555
479.287	2.55096
479.491	2.36161
479.696	1.70318
479.901	2.82688
480.105	2.80751
480.31	2.07724
480.515	2.20812
480.719	3.66396
480.924	2.03247
481.128	1.71511
481.333	2.55487
481.538	2.76348
481.742	2.39829
481.947	3.019
482.151	3.28674
482.356	3.18908
482.56	3.95232
482.765	4.07746
482.969	5.1441
483.174	5.70917
483.378	6.95304
483.582	6.79908
483.787	7.58363
483.991	7.54276
484.196	7.79529
484.4	7.60608
484.604	8.23263
484.809	6.9891
485.013	7.07321
485.217	6.19526
485.422	5.48325
485.626	5.00785
485.83	4.71097
486.034	4.45167
486.239	4.53005
486.443	4.50695
486.647	4.28137
486.851	5.17875
487.055	5.70062
487.26	5.02933
487.464	5.6457
487.668	4.86284
487.872	4.96064
488.076	5.71979
488.28	5.14968
488.484	4.84925
488.688	4.88293
488.892	4.95563
489.096	4.80522
489.3	4.17936
489.504	3.95836
489.708	4.2156
489.912	4.10763
490.116	3.90339
490.32	3.11764
490.524	3.9274
490.728	4.13049
490.932	3.93074
491.136	3.96721
491.34	4.91376
491.544	5.20586
491.748	4.76511
491.951	4.78612
492.155	4.70583
492.359	4.83488
492.563	3.89686
492.767	3.80084
492.97	3.57437
493.174	3.00251
493.378	3.02668
493.582	2.47538
493.785	2.74682
493.989	2.71837
494.193	2.61227
494.396	2.23491
494.6	2.88475
494.804	2.41529
495.007	2.11948
495.211	2.14946
495.414	2.39237
495.618	2.62823
495.822	3.17011
496.025	2.51194
496.229	3.14579
496.432	2.27034
496.636	2.66426
496.839	2.62348
497.043	3.7179
497.246	2.8427
497.45	2.5371
497.653	2.67228
497.856	2.88057
498.06	2.11707
498.263	2.51261
498.467	2.24324
498.67	3.07953
498.873	2.73744
499.077	2.28091
499.28	2.21898
499.483	2.67708
499.686	2.81235
499.89	2.5502
500.093	2.84911
500.296	2.0773
500.499	3.36536
500.703	2.45714
500.906	2.63086
501.109	3.47315
501.312	2.61795
501.515	2.44464
501.719	2.72314
501.922	3.30743
502.125	2.80763
502.328	2.52497
502.531	1.92041
502.734	2.58104
502.937	1.54236
503.14	2.56354
503.343	2.00062
503.546	2.33736
503.749	2.08535
503.952	2.81416
504.155	2.02219
504.358	2.89423
504.561	2.51879
504.764	1.84522
504.967	2.51148
505.17	2.3954
505.373	3.37524
505.576	2.54506
505.778	2.86165
505.981	2.23558
506.184	3.22965
506.387	1.69717
506.59	3.46806
506.793	3.18
506.995	2.81646
507.198	1.50429
507.401	2.62625
507.604	2.78603
507.806	1.93153
508.009	2.08417
508.212	2.73235
508.414	2.14536
508.617	2.0791
508.82	2.47165
509.022	3.23621
509.225	2.62441
509.427	1.6273
509.63	3.13329
509.833	2.49917
510.035	2.31111
510.238	1.73111
510.44	3.09703
510.643	1.39968
510.845	3.62928
511.048	2.67043
511.25	2.19716
511.453	2.29147
511.655	2.69209
511.858	2.2755
512.06	2.91779
512.262	2.50416
512.465	2.87789
512.667	2.16687
512.869	1.97946
513.072	2.68468
513.274	2.95526
513.476	2.85418
513.679	2.99574
513.881	1.94242
514.083	3.388
514.286	2.10137
514.488	2.33397
514.69	2.149
514.892	1.8837
515.094	2.87639
515.297	2.28918
515.499	2.64455
515.701	2.13663
515.903	3.44248
516.105	3.35799
516.307	2.92463
516.509	1.54363
516.711	1.80829
516.913	2.61526
517.116	2.37816
517.318	2.23313
517.52	3.15827
517.722	3.05365
517.924	2.03714
518.126	3.09186
518.328	2.45357
518.529	3.18789
518.731	3.97192
518.933	2.4816
519.135	2.82943
519.337	3.56251
519.539	3.07014
519.741	1.72517
519.943	2.52292
520.145	2.30573
520.346	2.89882
520.548	2.32968
520.75	2.67034
520.952	2.37019
521.153	2.61886
521.355	2.87904
521.557	2.0513
521.759	2.72979
521.96	2.60701
522.162	2.034
522.364	3.24874
522.565	2.17407
522.767	2.95137
522.969	3.25877
523.17	2.77789
523.372	2.88191
523.573	2.09784
523.775	2.49675
523.977	2.01018
524.178	3.38169
524.38	2.11412
524.581	3.09292
524.783	2.40532
524.984	3.18291
525.186	2.90491
525.387	3.37297
525.589	2.97607
525.79	2.85789
525.991	2.69125
526.193	3.42516
526.394	2.28498
526.596	3.37539
526.797	3.39519
526.998	3.0977
527.2	2.69685
527.401	4.21539
527.602	4.08192
527.803	5.54842
528.005	5.32433
528.206	5.85301
528.407	6.21598
528.608	5.8306
528.81	6.15784
529.011	5.41234
529.212	6.59307
529.413	5.84179
529.614	5.4188
529.815	5.54915
530.017	5.18712
530.218	4.58499
530.419	3.78429
530.62	3.88323
530.821	3.83406
531.022	2.69337
531.223	3.63609
531.424	3.65001
531.625	3.59047
531.826	3.46246
532.027	3.52112
532.228	4.49143
532.429	3.88705
532.63	3.75437
532.831	4.15794
533.032	4.19445
533.233	4.74664
533.433	4.42198
533.634	4.74414
533.835	4.16253
534.036	3.67597
534.237	3.90426
534.438	3.42328
534.638	2.82229
534.839	2.93146
535.04	3.42854
535.241	2.7641
535.441	3.93482
535.642	3.26037
535.843	2.52206
536.043	2.70299
536.244	2.80115
536.445	2.98332
536.645	3.87786
536.846	3.26791
537.047	3.96784
537.247	2.75728
537.448	2.99586
537.648	2.95029
537.849	2.81503
538.049	2.57662
538.25	3.06952
538.451	2.77978
538.651	2.20598
538.851	2.9098
539.052	3.3673
539.252	3.16426
539.453	2.63529
539.653	2.81827
539.854	2.85764
540.054	2.97571
540.254	4.00035
540.455	4.28956
540.655	3.49734
540.855	4.25119
541.056	4.88281
541.256	4.27514
541.456	5.38743
541.657	4.37438
541.857	5.60887
542.057	4.04349
542.257	3.82984
542.458	4.70651
542.658	4.69619
542.858	3.24978
543.058	4.34369
543.258	3.83353
543.458	2.76091
543.659	2.4431
543.859	3.57824
544.059	3.37954
544.259	2.79466
544.459	3.353
544.659	2.44769
544.859	3.0223
545.059	2.40687
545.259	3.01994
545.459	2.80797
545.659	3.29916
545.859	2.79898
546.059	2.97209
546.259	2.40954
546.459	2.03776
546.659	2.33522
546.859	3.09664
547.059	2.98263
547.258	3.03436
547.458	2.93538
547.658	2.01711
547.858	2.12614
548.058	2.82411
548.258	2.6333
548.457	2.21362
548.657	4.28216
548.857	2.73911
549.057	3.2868
549.256	3.17751
549.456	2.709
549.656	1.8099
549.855	4.15154
550.055	2.69593
550.255	4.30499
550.454	3.21211
550.654	3.61863
550.853	3.87145
551.053	3.61015
551.253	3.17639
551.452	3.3901
551.652	2.21369
551.851	1.9182
552.051	2.65415
552.25	2.5548
552.45	2.40428
552.649	2.63523
552.849	2.24723
553.048	2.82546
553.248	3.18518
553.447	2.29814
553.646	3.48087
553.846	3.90444
554.045	3.67285
554.244	2.14278
554.444	4.19774
554.643	2.22514
554.842	4.1064
555.042	4.65528
555.241	2.72974
555.44	2.53235
555.64	3.34602
555.839	4.35696
556.038	3.50165
556.237	2.59483
556.436	2.93555
556.636	3.50557
556.835	2.58169
557.034	4.11359
557.233	3.07179
557.432	2.20124
557.631	3.88548
557.83	3.11036
558.029	2.68899
558.228	2.77451
558.427	2.50312
558.626	3.45188
558.825	2.5441
559.024	3.23556
559.223	4.47753
559.422	2.93964
559.621	3.50373
559.82	1.47585
560.019	3.21021
560.218	2.84606
560.417	0.976
560.616	2.76671
560.815	5.53783
561.014	2.03847
561.212	3.99711
561.411	3.34057
561.61	1.95438
561.809	2.92843
562.008	4.12059
562.206	3.04673
562.405	3.55158
562.604	2.89858
562.803	3.16195
563.001	3.08574
563.2	2.06222
563.399	3.58607
563.597	2.25392
563.796	3.27754
563.995	2.20852
564.193	3.55646
564.392	2.69483
564.59	4.7645
564.789	1.5261
564.988	2.70352
565.186	2.99073
565.385	2.74166
565.583	2.52437
565.782	2.76075
565.98	2.50007
566.179	2.82921
566.377	1.97059
566.575	2.27517
566.774	3.61518
566.972	3.4736
567.171	4.1742
567.369	3.78394
567.567	2.92427
567.766	3.21506
567.964	1.38738
568.162	3.35898
568.361	3.78408
568.559	2.88601
568.757	3.21588
568.956	3.16217
569.154	2.97341
569.352	3.72842
569.55	2.90205
569.748	2.98883
569.947	2.32746
570.145	2.32547
570.343	2.17973
570.541	3.84854
570.739	1.88418
570.937	3.00474
571.135	3.0815
571.333	4.2162
571.532	3.9852
571.73	3.0341
571.928	3.63459
572.126	3.22652
572.324	2.50598
572.522	3.79683
572.72	4.76542
572.918	2.84416
573.116	3.13958
573.313	2.79711
573.511	2.76577
573.709	2.6392
573.907	3.38301
574.105	2.6272
574.303	1.75741
574.501	1.87028
574.699	3.06446
574.896	3.1537
575.094	3.29429
575.292	1.93317
575.49	3.51461
575.688	2.839
575.885	3.89012
576.083	4.39988
576.281	3.21975
576.478	2.55681
576.676	3.59577
576.874	2.04434
577.071	2.75796
577.269	5.21491
577.467	3.00975
577.664	3.1716
577.862	3.74242
578.059	2.62088
578.257	3.91331
578.455	3.12105
578.652	3.17846
578.85	1.76599
579.047	3.48648
579.245	3.23205
579.442	3.12372
579.64	3.46092
579.837	1.75554
580.034	5.41296
580.232	3.0138
580.429	2.40331
580.627	3.84674
580.824	4.42309
581.021	3.93226
581.219	3.20087
581.416	2.52843
581.613	4.36342
581.811	4.42372
582.008	2.62261
582.205	3.92069
582.402	3.47901
582.6	5.38987
582.797	3.62159
582.994	3.88441
583.191	4.23121
583.388	3.59172
583.586	4.24727
583.783	4.56201
583.98	2.91516
584.177	3.47057
584.374	1.05112
584.571	3.44116
584.768	3.44247
584.965	3.24626
585.162	4.20863
585.359	5.06599
585.556	3.59993
585.753	3.92292
585.95	2.48274
586.147	2.78388
586.344	4.11449
586.541	3.47779
586.738	2.48476
586.935	3.41249
587.132	2.84744
587.329	4.59414
587.526	3.31174
587.722	7.85016
587.919	2.22068
588.116	3.78636
588.313	4.91267
588.51	5.61782
588.706	3.22974
588.903	3.97249
589.1	4.55265
589.297	6.17131
589.493	3.37345
589.69	3.80385
589.887	2.90758
590.083	2.3291
590.28	2.6648
590.477	4.30534
590.673	4.08139
590.87	4.75348
591.067	3.0156
591.263	4.01063
591.46	4.018
591.656	3.44185
591.853	5.10863
592.049	2.65986
592.246	3.13962
592.442	4.85766
592.639	4.5016
592.835	2.43038
593.032	3.95853
593.228	2.21374
593.425	2.14721
593.621	2.19612
593.817	3.62142
594.014	2.8169
594.21	3.51091
594.406	4.48135
594.603	3.77335
594.799	2.90876
594.995	1.28344
595.192	4.39948
595.388	3.07678
595.584	2.76856
595.78	1.99143
595.977	5.28171
596.173	4.74906
596.369	3.0135
596.565	2.21003
596.761	1.83898
596.957	4.1286
597.154	2.254
597.35	2.66581
597.546	2.33496
597.742	3.58923
597.938	3.25716
598.134	2.53298
598.33	3.30048
598.526	4.87984
598.722	3.95137
598.918	5.10406
599.114	4.02701
599.31	2.7438
599.506	3.55167
599.702	2.82075
599.898	3.97418
600.094	4.67608
600.29	4.43507
600.485	4.59119
600.681	3.50604
600.877	5.22929
601.073	3.74736
601.269	5.67829
601.465	5.08972
601.66	3.06397
601.856	2.02854
602.052	5.41314
602.248	3.10151
602.443	1.48468
602.639	2.12042
602.835	2.61503
603.03	2.59547
603.226	4.17458
603.422	2.42767
603.617	2.89494
603.813	2.86776
604.009	2.54188
604.204	4.10857
604.4	1.65853
604.595	3.67039
604.791	2.04539
604.986	3.2001
605.182	2.12038
605.377	2.7509
605.573	2.6384
605.768	3.17119
605.964	3.60621
606.159	3.9704
606.355	4.57169
606.55	3.26884
606.746	4.44656
606.941	3.63715
607.136	5.81473
607.332	6.53257
607.527	2.30026
607.722	4.03487
607.918	3.34136
608.113	2.71675
608.308	4.1688
608.503	3.87543
608.699	3.76747
608.894	3.85323
609.089	2.54189
609.284	3.47251
609.479	2.68279
609.675	3.78696
609.87	2.86378
610.065	3.87892
610.26	4.13997
610.455	4.05741
610.65	3.14886
610.845	3.53172
611.04	4.28166
611.235	3.41664
611.43	3.28598
611.625	2.19312
611.82	5.10848
612.015	2.83126
612.21	5.57042
612.405	2.21702
612.6	5.95002
612.795	5.4045
612.99	4.86175
613.185	2.72574
613.38	3.17314
613.575	4.49277
613.77	6.89925
613.965	2.13752
614.159	3.01008
614.354	5.63621
614.549	5.48432
614.744	4.78932
614.938	3.12013
615.133	2.36723
615.328	5.27084
615.523	5.44197
615.717	7.51733
615.912	3.52982
616.107	4.11661
616.301	3.70461
616.496	3.22528
616.691	6.18532
616.885	4.95168
617.08	7.12737
617.274	5.84168
617.469	6.72419
617.664	4.91763
617.858	3.58948
618.053	4.4184
618.247	3.93379
618.442	1.37302
618.636	5.76774
618.831	3.64677
619.025	3.43303
619.219	7.49592
619.414	0.13404
619.608	4.03476
619.803	3.15255
619.997	6.88352
620.191	5.53517
620.386	4.81057
620.58	4.29752
620.774	2.24106
620.969	2.51826
621.163	4.4609
621.357	2.69144
621.551	3.92907
621.746	4.13874
621.94	4.41303
622.134	8.63502
622.328	6.87969
622.522	2.48732
622.716	5.70558
622.911	5.53746
623.105	5.42045
623.299	4.88537
623.493	8.57195
623.687	3.45628
623.881	3.93062
624.075	5.15009
624.269	5.89928
624.463	2.13114
624.657	2.28376
624.851	5.12398
625.045	5.49035
625.239	5.36379
625.433	3.25501
625.627	6.2485
625.821	3.39896
626.015	3.04421
626.209	4.02805
626.403	1.73811
626.596	4.3931
626.79	4.83451
626.984	2.357
627.178	4.57387
627.372	4.42103
627.565	4.94571
627.759	2.04193
627.953	2.41562
628.147	4.44817
628.34	4.99226
628.534	6.51472
628.728	3.88047
628.921	5.72718
629.115	5.35397
629.309	5.56594
629.502	5.60882
629.696	4.67358
629.89	4.18213
630.083	4.47742
630.277	5.17226
630.47	6.90966
630.664	3.91836
630.857	2.6472
631.051	5.33003
631.244	6.06924
631.438	5.95486
631.631	3.591
631.825	6.45472
632.018	5.4849
632.212	7.14976
632.405	5.98449
632.598	3.5809
632.792	5.03488
632.985	1.33333
633.178	3.75424
633.372	4.27909
633.565	4.17522
633.758	6.31634
633.952	3.33361
634.145	3.45816
634.338	4.3916
634.531	3.93429
634.724	3.65573
634.918	4.77516
635.111	4.29192
635.304	3.90121
635.497	7.60343
635.69	5.0083
635.883	6.39132
636.077	3.11588
636.27	5.59003
636.463	5.05565
636.656	5.41591
636.849	3.98613
637.042	5.24829
637.235	7.12343
637.428	5.94655
637.621	6.4818
637.814	7.13167
638.007	7.28262
638.2	7.45556
638.393	8.14377
638.586	3.24493
638.778	4.16936
638.971	5.22501
639.164	7.68329
639.357	5.82772
639.55	7.50169
639.743	6.23359
639.935	6.49001
640.128	8.45643
640.321	6.51685
640.514	5.45136
640.707	9.82451
640.899	7.22081
641.092	2.76947
641.285	17.29536
641.477	1.70489
641.67	9.3943
641.863	7.64987
642.055	6.05392
642.248	5.91727
642.441	5.11636
642.633	6.49544
642.826	7.41117
643.018	7.40373
643.211	8.8956
643.403	8.90285
643.596	9.40687
643.788	8.68813
643.981	5.07391
644.173	7.0249
644.366	5.31902
644.558	2.91461
644.751	7.15399
644.943	3.2629
645.135	9.0318
645.328	9.04148
645.52	6.92303
645.712	7.63768
645.905	11.75616
646.097	4.22894
646.289	6.56714
646.482	9.48834
646.674	4.88818
646.866	7.83656
647.058	6.78078
647.251	4.47825
647.443	4.96962
647.635	5.77428
647.827	4.27394
648.019	4.19041
648.211	5.76655
648.404	6.31137
648.596	9.03103
648.788	6.34874
648.98	6.54538
649.172	6.73358
649.364	6.84789
649.556	3.29342
649.748	10.48734
649.94	4.66266
650.132	7.0483
650.324	4.31704
650.516	4.94384
650.708	7.93515
650.9	3.66559
651.092	5.11967
651.284	3.41708
651.476	3.8811
651.667	6.92898
651.859	8.61489
652.051	5.781
652.243	6.38092
652.435	5.13883
652.627	6.97156
652.818	6.84206
653.01	3.15108
653.202	4.49865
653.394	5.2258
653.585	7.3913
653.777	14.59356
653.969	8.39193
654.16	8.45996
654.352	4.35912
654.544	6.29046
654.735	8.64942
654.927	6.74266
655.118	9.69197
655.31	7.61729
655.502	8.68536
655.693	5.31728
655.885	7.61267
656.076	9.23338
656.268	6.4488
656.459	8.98323
656.651	8.93616
656.842	5.41274
657.034	4.90242
657.225	8.10885
657.416	9.21229
657.608	8.69388
657.799	6.02883
657.99	8.5269
658.182	4.39885
658.373	4.81126
658.564	7.61027
658.756	6.2626
658.947	5.38334
659.138	4.09801
659.33	4.72171
659.521	4.43466
659.712	5.41442
659.903	5.39625
660.094	4.55059
660.286	3.0758
660.477	9.60411
660.668	7.11519
660.859	5.98883
661.05	3.66558
661.241	7.52891
661.432	7.49309
661.623	5.94904
661.814	4.86297
662.006	3.15007
662.197	7.4906
662.388	8.69922
662.579	7.24553
662.77	9.67611
662.96	12.4161
663.151	8.50065
663.342	3.1254
663.533	7.99462
663.724	6.32796
663.915	10.42377
664.106	6.88485
664.297	10.46116
664.488	8.98324
664.678	6.30116
664.869	8.05862
665.06	8.92147
665.251	7.48351
665.442	8.33403
665.632	5.20819
665.823	11.86658
666.014	1.2006
666.204	8.3294
666.395	9.8768
666.586	13.44345
666.776	9.20593
666.967	11.05714
667.158	7.1361
667.348	10.61358
667.539	5.073
667.729	8.99203
667.92	5.09147
668.111	9.50731
668.301	8.8703
668.492	6.55763
668.682	7.14734
668.873	6.72054
669.063	5.06111
669.253	7.54714
669.444	9.85014
669.634	6.84415
669.825	11.3939
670.015	9.57946
670.206	5.58599
670.396	12.2131
670.586	6.91343
670.777	8.20067
670.967	2.64331
671.157	7.30162
671.347	5.63368
671.538	10.97962
671.728	8.48887
671.918	12.01443
672.108	9.7213
672.299	7.64141
672.489	8.77759
672.679	6.50866
672.869	9.26878
673.059	12.29204
673.249	9.34868
673.44	5.35476
673.63	7.50791
673.82	9.89448
674.01	5.81116
674.2	8.95945
674.39	15.7741
674.58	9.28169
674.77	8.29523
674.96	8.01243
675.15	17.67808
675.34	10.61537
675.53	8.44059
675.72	6.93049
675.91	4.8956
676.099	12.3283
676.289	13.46578
676.479	10.57787
676.669	7.2133
676.859	9.25301
677.049	5.55434
677.238	8.15766
677.428	12.32753
677.618	8.85828
677.808	10.92549
677.997	9.20497
678.187	5.62056
678.377	7.65837
678.567	5.9932
678.756	6.48806
678.946	7.2846
679.136	4.91347
679.325	5.79058
679.515	5.5553
679.704	4.58467
679.894	8.91159
680.084	8.01196
680.273	10.45138
680.463	4.89415
680.652	5.40399
680.842	7.16275
681.031	9.51702
681.221	5.24069
681.41	8.49841
681.6	7.0953
681.789	9.51988
681.978	10.90118
682.168	8.30956
682.357	9.01127
682.547	9.84714
682.736	8.73672
682.925	11.42772
683.115	10.72968
683.304	10.3703
683.493	9.28525
683.682	9.73995
683.872	9.74012
684.061	11.90552
684.25	10.64649
684.439	13.35476
684.629	10.67601
684.818	17.93338
685.007	8.99083
685.196	7.8401
685.385	13.49676
685.574	10.07564
685.763	9.54754
685.952	9.35648
686.142	5.53785
686.331	13.07893
686.52	4.44827
686.709	13.77402
686.898	12.9917
687.087	10.90753
687.276	14.09462
687.465	11.87178
687.654	8.09973
687.842	13.27685
688.031	5.3026
688.22	12.81117
688.409	9.5498
688.598	10.18221
688.787	16.50154
688.976	9.25335
689.165	14.15045
689.353	8.12921
689.542	10.69783
689.731	11.6307
689.92	14.94109
690.108	12.1096
690.297	8.43086
690.486	10.40392
690.675	12.03822
690.863	15.11611
691.052	14.72014
691.241	11.81658
691.429	10.6718
691.618	14.59201
691.806	6.91358
691.995	9.77206
692.184	10.68883
692.372	8.88724
692.561	10.28006
692.749	10.13925
692.938	17.57487
693.126	12.45212
693.315	9.69522
693.503	12.5144
693.692	12.09575
693.88	13.67973
694.068	17.12111
694.257	10.05865
694.445	11.53654
694.634	4.9907
694.822	13.82772
695.01	14.27958
695.199	14.77657
695.387	15.18919
695.575	14.91219
695.763	10.91468
695.952	9.76596
696.14	5.91975
696.328	9.3105
696.516	11.64731
696.705	11.4207
696.893	11.88669
697.081	5.36403
697.269	12.61184
697.457	7.33064
697.645	6.13377
697.833	12.69237
698.021	7.04334
698.21	8.01225
698.398	9.15545
698.586	6.0721
698.774	5.60042
698.962	8.23285
699.15	6.04261
699.338	4.75405
699.526	9.99222
699.714	7.04749
699.901	6.9632
700.089	11.94984
700.277	7.00113
700.465	8.80954
700.653	11.99676
700.841	11.22431
701.029	7.88208
701.217	13.90833
701.404	10.9258
701.592	15.05958
701.78	16.54367
701.968	9.35027
702.155	9.80859
702.343	6.85304
702.531	15.29762
702.718	12.36011
702.906	10.38818
703.094	9.10717
703.281	14.60848
703.469	10.39521
703.657	14.29728
703.844	22.39209
704.032	17.18393
704.219	9.66245
704.407	12.8819
704.595	16.36994
704.782	12.20596
704.97	10.25526
705.157	10.20074
705.345	17.56321
705.532	21.27997
705.719	12.98993
705.907	16.71112
706.094	12.75104
706.282	18.9046
706.469	10.92504
706.656	12.63053
706.844	10.99019
707.031	15.41965
707.218	12.50052
707.406	18.64351
707.593	15.43655
707.78	14.57648
707.968	11.70614
708.155	8.96581
708.342	14.96544
708.529	14.59929
708.716	13.35477
708.904	19.05198
709.091	15.2051
709.278	8.5268
709.465	19.64616
709.652	19.19678
709.839	18.23049
710.026	14.22516
710.213	7.38131
710.4	14.33615
710.587	16.31393
710.774	16.75216
710.961	17.16897
711.148	13.37593
711.335	17.62891
711.522	13.30874
711.709	14.56766
711.896	21.49806
712.083	16.6613
712.27	10.15624
712.457	14.03611
712.644	8.30218
712.831	21.64562
713.017	14.72297
713.204	17.0241
713.391	11.33378
713.578	18.47072
713.765	19.2944
713.951	15.67712
714.138	26.11985
714.325	16.37815
714.512	14.17017
714.698	11.0276
714.885	20.56988
715.072	15.53471
715.258	14.65293
715.445	12.34022
715.631	20.08823
715.818	4.74572
716.005	11.86702
716.191	16.4179
716.378	13.30475
716.564	17.69124
716.751	10.87325
716.937	12.43124
717.124	18.81734
717.31	11.25817
717.497	20.54966
717.683	11.5578
717.869	24.30547
718.056	12.8632
718.242	16.96569
718.429	15.7098
718.615	10.11839
718.801	14.90485
718.988	19.78068
719.174	18.17191
719.36	14.60519
719.547	19.37177
719.733	15.86436
719.919	17.33864
720.105	18.92804
720.291	15.72953
720.478	16.20932
720.664	15.12755
720.85	12.69303
721.036	28.65292
721.222	22.71524
721.408	15.06546
721.595	24.80925
721.781	23.59025
721.967	20.52985
722.153	23.79519
722.339	19.48436
722.525	18.46873
722.711	11.73819
722.897	9.44532
723.083	14.4945
723.269	21.84485
723.455	28.28761
723.641	30.57828
723.827	17.47041
724.012	18.26906
724.198	14.77977
724.384	22.6857
724.57	18.23909
724.756	9.71103
724.942	8.28459
725.127	21.14028
725.313	23.49342
725.499	23.24284
725.685	26.83489
725.87	18.47228
726.056	12.87265
726.242	23.38488
726.428	10.29885
726.613	21.93243
726.799	15.51621
726.985	12.22196
727.17	10.50203
727.356	24.30759
727.541	13.32675
727.727	15.54102
727.913	20.01382
728.098	15.96665
728.284	20.89243
728.469	11.23994
728.655	13.21157
728.84	20.59287
729.026	20.80835
729.211	21.60239
729.397	18.8381
729.582	20.01019
729.767	16.59743
729.953	19.51546
730.138	22.20949
730.323	7.10765
730.509	11.57049
730.694	25.61186
730.879	19.92298
731.065	18.5779
731.25	28.55118
731.435	20.55672
731.621	9.93912
731.806	14.50796
731.991	19.20869
732.176	11.51877
732.361	24.09739
732.547	20.16521
732.732	9.89377
732.917	29.22061
733.102	11.38329
733.287	13.51381
733.472	17.3896
733.657	17.67281
733.842	10.23895
734.027	16.11206
734.212	16.93626
734.397	13.74796
734.582	17.44756
734.767	21.83205
734.952	24.77123
735.137	5.8909
735.322	24.43416
735.507	19.24789
735.692	19.33761
735.877	29.38958
736.062	27.39532
736.247	20.23123
736.431	18.53527
736.616	22.21473
736.801	20.27166
736.986	18.77448
737.171	13.75605
737.355	11.34556
737.54	24.34292
737.725	17.48387
737.909	35.03773
738.094	15.21973
738.279	23.56042
738.463	17.07686
738.648	22.173
738.833	21.07963
739.017	29.72313
739.202	16.9445
739.386	18.26157
739.571	14.04251
739.756	22.77265
739.94	19.24939
740.125	23.72081
740.309	15.33013
740.494	23.28079
740.678	19.81316
740.863	21.38557
741.047	20.14863
741.231	26.16904
741.416	14.72487
741.6	27.74775
741.785	14.56486
741.969	23.07597
742.153	25.69705
742.338	7.33259
742.522	18.52299
742.706	23.57362
742.89	11.66267
743.075	20.29045
743.259	26.32806
743.443	23.56379
743.627	26.47395
743.812	32.71268
743.996	4.61823
744.18	18.37944
744.364	16.42105
744.548	35.51458
744.732	19.02274
744.916	24.12164
745.1	22.5123
745.285	18.88488
745.469	22.84836
745.653	30.85016
745.837	11.36756
746.021	35.48589
746.205	28.27517
746.389	20.37565
746.573	18.41917
746.757	30.09718
746.94	17.84685
747.124	27.06176
747.308	13.08687
747.492	25.96253
747.676	17.2622
747.86	34.92653
748.044	15.19706
748.227	8.67279
748.411	42.9501
748.595	21.19859
748.779	15.41377
748.963	23.31876
749.146	21.0552
749.33	15.12732
749.514	13.26188
749.697	27.90461
749.881	15.51916
750.065	13.382
750.248	20.75187
750.432	35.06052
750.616	20.54297
750.799	11.53673
750.983	33.07618
751.166	38.18538
751.35	11.53673
751.533	24.9279
751.717	28.7745
751.9	31.23204
752.084	17.70375
752.267	14.51221
752.451	14.24367
752.634	19.51482
752.818	24.86287
753.001	25.96261
753.184	27.41579
753.368	23.31893
753.551	1.3807
753.734	16.65952
753.918	33.83783
754.101	16.66887
754.284	26.11976
754.467	18.06817
754.651	15.23214
754.834	15.01534
755.017	28.49389
755.2	27.4826
755.384	14.33933
755.567	25.54469
755.75	28.35627
755.933	17.95821
756.116	21.86542
756.299	17.66467
756.482	15.76009
756.665	24.98392
756.848	20.71226
757.032	23.50792
757.215	10.64107
757.398	16.82219
757.581	16.95061
757.764	38.80031
757.947	19.81321
758.129	29.06196
758.312	2.41627
758.495	19.35739
758.678	19.67861
758.861	19.30131
759.044	34.49462
759.227	15.89057
759.41	14.54788
759.592	25.8219
759.775	20.42537
759.958	27.06491
760.141	12.07369
760.324	36.08368
760.506	30.87958
760.689	27.1557
760.872	39.65614
761.054	24.86975
761.237	19.2717
761.42	23.95233
761.602	28.82526
761.785	23.09622
761.968	28.05443
762.15	33.96175
762.333	20.11601
762.515	24.21206
762.698	17.70901
762.88	26.88374
763.063	24.59675
763.245	26.72484
763.428	15.26571
763.61	15.11668
763.793	12.81621
763.975	21.81333
764.158	17.46063
764.34	16.87845
764.522	13.44737
764.705	17.51853
764.887	28.56803
765.069	10.76513
765.252	24.18216
765.434	24.31887
765.616	19.93859
765.799	16.62485
765.981	26.09982
766.163	15.29329
766.345	27.27808
766.528	16.09965
766.71	5.93626
766.892	21.79529
767.074	29.04971
767.256	18.03582
767.438	33.75507
767.62	23.07337
767.802	37.9273
767.985	26.09525
768.167	36.31618
768.349	16.10346
768.531	26.4619
768.713	24.87612
768.895	28.34916
769.077	23.69635
769.259	40.56412
769.441	61.13999
769.623	28.01999
769.804	35.07615
769.986	32.4798
770.168	40.11583
770.35	49.95848
770.532	36.98183
770.714	37.94122
770.896	40.58094
771.077	15.92465
771.259	42.34251
771.441	36.04311
771.623	47.28664
771.804	57.03338
771.986	12.89105
772.168	26.19607
772.35	43.25622
772.531	56.38176
772.713	33.11966
772.894	47.4316
773.076	30.76276
773.258	25.5786
773.439	45.28488
773.621	51.50617
773.802	20.36358
773.984	26.18683
774.166	35.65081
774.347	52.45387
774.529	45.09884
774.71	12.61624
774.891	30.16022
775.073	27.43202
775.254	51.57408
775.436	27.71922
775.617	55.3042
775.799	28.06407
775.98	53.52983
776.161	52.43111
776.343	52.29454
776.524	33.16423
776.705	29.78125
776.886	13.56358
777.068	35.69698
777.249	63.33927
777.43	57.46203
777.611	21.46935
777.793	28.79906
777.974	52.2452
778.155	30.16744
778.336	24.78399
778.517	58.33945
778.698	24.20413
778.879	12.56049
779.061	5.22201
779.242	39.44001
779.423	40.58192
779.604	27.50992
779.785	33.19696
779.966	36.31486
780.147	45.63926
780.328	46.66218
780.509	69.14063
780.69	41.81169
780.871	24.20177
781.051	19.01493
781.232	36.88713
781.413	35.91931
781.594	28.35242
781.775	28.66217
781.956	26.44743
782.137	12.25281
782.317	26.64839
782.498	37.93054
782.679	36.10792
782.86	36.65388
783.04	25.38726
783.221	38.48952
783.402	58.32219
783.583	34.91917
783.763	41.66595
783.944	29.2916
784.124	16.13487
784.305	53.98448
784.486	41.87467
784.666	32.88429
784.847	15.17508
785.027	69.44219
785.208	24.62119
785.388	22.83704
785.569	27.23558
785.749	31.13139
785.93	28.78358
786.11	18.28356
786.291	39.4801
786.471	35.29498
786.652	44.33153
786.832	32.86686
787.012	38.19373
787.193	21.23027
787.373	35.82837
787.553	28.96344
787.734	37.79292
787.914	30.41502
788.094	40.64549
788.275	36.95767
788.455	30.32834
788.635	19.03371
788.815	36.65078
788.995	22.56752
789.176	19.49111
789.356	25.14398
789.536	31.51281
789.716	38.24173
789.896	24.66992
790.076	28.11628
790.256	37.51477
790.436	9.01655
790.616	24.71043
790.796	35.69033
790.976	29.69297
791.156	25.38257
791.336	44.0014
791.516	38.05009
791.696	30.13424
791.876	16.06265
792.056	36.43338
792.236	44.47288
792.416	42.7245
792.596	39.13757
792.776	39.07663
792.956	40.24725
793.135	51.01421
793.315	19.7779
793.495	46.73272
793.675	40.89281
793.854	44.62436
794.034	43.94878
794.214	20.33443
794.394	45.26804
794.573	48.78031
794.753	34.25365
794.933	25.02577
795.112	35.56724
795.292	43.63058
795.472	56.43693
795.651	20.04941
795.831	33.49547
796.01	30.0133
796.19	29.42176
796.369	32.35734
796.549	39.60948
796.728	31.55838
796.908	19.71956
797.087	22.76334
797.267	31.54343
797.446	19.91174
797.626	39.19279
797.805	39.65806
797.984	21.89482
798.164	40.41516
798.343	24.24509
798.522	36.85963
798.702	33.9198
798.881	20.01755
799.06	31.81979
799.239	10.87523
799.419	21.34098
799.598	49.95837
799.777	40.05103
799.956	50.19528
800.136	29.67798
800.315	22.72637
800.494	38.79187
800.673	43.76281
800.852	40.85329
801.031	48.48391
801.21	40.01458
801.389	27.59382
801.568	36.1667
801.747	58.76329
801.926	33.12261
802.105	52.54872
802.284	28.77666
802.463	51.54406
802.642	39.01719
802.821	36.92099
803	50.61059
803.179	42.35433
803.358	50.54718
803.537	26.3733
803.716	38.40648
803.895	24.50668
804.073	33.50783
804.252	26.56013
804.431	39.11918
804.61	32.74777
804.789	47.4629
804.967	27.14215
805.146	24.83348
805.325	59.74632
805.503	38.50605
805.682	17.45635
805.861	67.45357
806.039	47.75051
806.218	25.68348
806.397	37.10042
806.575	33.52349
806.754	37.36007
806.932	21.69538
807.111	55.71831
807.289	46.34131
807.468	34.57142
807.646	46.03471
807.825	42.82491
808.003	35.46156
808.182	44.05488
808.36	36.48011
808.539	25.05616
808.717	56.00606
808.895	25.51964
809.074	38.53566
809.252	33.73575
809.43	42.92622
809.609	51.13349
809.787	59.73282
809.965	32.47936
810.144	34.65714
810.322	27.88142
810.5	39.0346
810.678	33.73131
810.856	62.76933
811.035	49.37505
811.213	45.03564
811.391	52.17019
811.569	36.17353
811.747	75.82364
811.925	52.04057
812.103	26.05427
812.281	29.17801
812.459	58.00632
812.637	57.47437
812.816	48.54155
812.994	62.15354
813.171	49.72932
813.349	44.28516
813.527	50.75371
813.705	55.79489
813.883	68.21292
814.061	51.56378
814.239	62.37459
814.417	68.80629
814.595	44.27775
814.773	38.67569
814.95	42.83292
815.128	39.17803
815.306	38.25649
815.484	35.31015
815.662	24.72348
815.839	25.2247
816.017	29.6095
816.195	53.97587
816.372	34.68459
816.55	45.85808
816.728	57.64588
816.905	33.72153
817.083	57.10315
817.261	36.60788
817.438	69.34972
817.616	61.2738
817.793	27.62399
817.971	49.24807
818.148	45.13399
818.326	56.21085
818.503	41.93539
818.681	57.42039
818.858	31.54597
819.036	37.67289
819.213	42.06385
819.391	27.50005
819.568	27.8758
819.745	24.81543
819.923	50.51161
820.1	30.92969
820.277	27.41712
820.455	33.77908
820.632	35.8001
820.809	35.64015
820.986	21.92646
821.164	17.72639
821.341	15.3741
821.518	22.80591
821.695	15.76823
821.872	14.44068
822.05	12.08488
822.227	8.32357
822.404	8.78675
822.581	10.42928
822.758	8.17565
822.935	8.11144
823.112	9.99243
823.289	7.06525
823.466	10.11942
823.643	8.68406
823.82	11.83721
823.997	9.68799
824.174	12.79299
824.351	17.84413
824.528	16.91589
824.705	14.76491
824.882	16.69776
825.059	24.67393
825.236	15.83976
825.412	17.13212
825.589	22.65881
825.766	32.62651
825.943	18.74686
826.12	23.91546
826.296	14.5632
826.473	20.65421
826.65	20.66929
826.827	27.81838
827.003	16.58798
827.18	19.15759
827.357	21.79297
827.533	18.37012
827.71	8.21181
827.887	15.21385
828.063	18.24957
828.24	15.40128
828.416	22.18591
828.593	17.59873
828.769	25.64136
828.946	28.21881
829.122	29.31349
829.299	28.97561
829.475	13.57469
829.652	26.3567
829.828	47.58979
830.005	27.69595
830.181	39.56856
830.357	27.2059
830.534	42.35896
830.71	31.08081
830.886	42.54806
831.063	39.21694
831.239	51.88648
831.415	21.09769
831.592	52.66918
831.768	32.37361
831.944	26.81835
832.12	54.19172
832.296	49.57516
832.473	44.83503
832.649	30.28713
832.825	43.86483
833.001	24.92435
833.177	39.90726
833.353	36.9887
833.529	18.4742
833.705	29.43825
833.881	20.09545
834.058	19.21811
834.234	20.82028
834.41	20.63865
834.586	15.54244
834.761	19.17433
834.937	22.14093
835.113	22.63935
835.289	19.2828
835.465	24.93069
835.641	20.59874
835.817	22.2029
835.993	44.61788
836.169	19.04443
836.344	30.29877
836.52	36.97954
836.696	37.63617
836.872	24.2837
837.048	76.17303
837.223	28.44838
837.399	61.4796
837.575	47.73122
837.75	44.96451
837.926	62.47572
838.102	99.4809
838.277	76.1981
838.453	92.67
838.628	92.10877
838.804	35.55565
838.98	93.82692
839.155	46.78616
839.331	61.31431
839.506	45.66979
839.682	47.14561
839.857	59.68328
840.033	69.09625
840.208	29.68815
840.384	14.75995
840.559	33.76993
840.734	51.39168
840.91	76.42357
841.085	46.97793
841.26	46.37423
841.436	40.52215
841.611	37.27756
841.786	56.75916
841.962	76.0125
842.137	46.73818
842.312	25.17493
842.487	41.19951
842.663	37.66342
842.838	37.55764
843.013	137.55735
843.188	68.462
843.363	54.29345
843.538	119.58479
843.714	127.70992
843.889	118.5263
844.064	118.28136
844.239	106.86755
844.414	130.10098
844.589	79.95916
844.764	144.52587
844.939	139.53002
845.114	170.6383
845.289	153.31196
845.464	172.68467
845.639	148.7043
845.814	69.16745
845.989	87.7671
846.163	95.5646
846.338	114.84899
846.513	152.04982
846.688	101.5532
846.863	111.63313
847.038	95.21893
847.212	99.76564
847.387	113.02468
847.562	116.66914
847.737	141.93734
847.911	53.6372
848.086	69.45053
848.261	224.84403
848.435	92.98178
848.61	151.6305
848.785	70.62052
848.959	142.8046
849.134	179.27373
849.308	233.42924
849.483	114.89829
849.658	173.29482
849.832	87.08821
850.007	81.57895
850.181	239.68894
850.356	89.46645
850.53	192.06518
850.705	69.7548
850.879	41.41442
851.053	99.09455
851.228	79.04349
851.402	122.75625
851.577	150.73507
851.751	170.64311
851.925	107.56252
852.099	47.18539
852.274	85.23082
852.448	100.24841
852.622	139.34164
852.797	101.84461
852.971	117.21853
853.145	124.278
853.319	228.90656
853.493	171.25675
853.668	99.51739
853.842	208.85977
854.016	152.93781
854.19	187.40171
854.364	115.53069
854.538	135.92113
854.712	168.06545
854.886	115.01271
855.06	96.90123
855.234	35.43073
855.408	174.32818
855.582	157.55522
855.756	172.79707
855.93	196.30496
856.104	112.66436
856.278	156.18882
856.452	107.05042
856.626	143.35131
856.8	216.00124
856.973	138.20239
857.147	139.36913
857.321	144.32923
857.495	155.44597
857.669	116.31178
857.842	107.19009
858.016	170.82986
858.19	73.86836
858.364	266.42235
858.537	102.71717
858.711	119.15575
858.885	99.89408
859.058	90.30214
859.232	56.98885
859.405	56.36275
859.579	166.60061
859.753	143.13901
859.926	84.94977
860.1	64.19625
860.273	107.84633
860.447	193.44837
860.62	100.46251
860.794	199.50288
860.967	132.68919
861.141	172.45315
861.314	239.03675
861.487	126.58817
861.661	179.76078
861.834	193.1427
862.008	175.45162
862.181	117.30274
862.354	127.78611
862.528	141.26962
862.701	94.13688
862.874	63.16235
863.047	98.35254
863.221	95.78015
863.394	53.86988
863.567	177.60047
863.74	44.44001
863.913	155.31973
864.087	140.88525
864.26	154.72693
864.433	111.46607
864.606	220.7936
864.779	116.49414
864.952	50.93368
865.125	98.6451
865.298	108.84809
865.471	115.40361
865.644	196.97868
865.817	164.94402
865.99	162.51345
866.163	194.59534
866.336	100.33711
866.509	111.8043
866.682	108.14003
866.855	185.09492
867.028	61.09485
867.2	143.8503
867.373	36.82229
867.546	122.68874
867.719	221.82722
867.892	132.1419
868.064	83.25428
868.237	135.75576
868.41	116.50533
868.583	77.94196
868.755	68.50161
868.928	105.14514
869.101	251.31681
869.273	171.97764
869.446	140.34633
869.619	179.74695
869.791	122.88421
869.964	179.26872
870.136	166.19234
870.309	131.8575
870.481	118.68565
870.654	56.73081
870.826	132.25303
870.999	97.2124
871.171	154.07282
871.344	90.75148
871.516	114.11831
871.689	84.88067
871.861	124.70316
872.033	88.90196
872.206	106.25437
872.378	170.65272
872.55	106.49146
872.723	70.33343
872.895	105.99727
873.067	163.35893
873.24	167.25699
873.412	98.6241
873.584	101.05281
873.756	100.72546
873.928	124.64795
874.101	130.15631
874.273	143.72923
874.445	52.663
874.617	72.70022
874.789	128.74688
874.961	97.30991
875.133	144.58201
875.305	110.17991
875.477	76.38516
875.649	56.28439
875.821	74.37136
875.993	182.52777
876.165	80.39263
876.337	127.451
876.509	117.97612
876.681	127.61799
876.853	125.67981
877.025	135.76041
877.197	80.55761
877.369	65.69067
877.541	145.5406
877.712	31.63419
877.884	77.13181
878.056	130.30674
878.228	68.51572
878.4	141.03272
878.571	74.6069
878.743	51.5326
878.915	115.54002
879.086	68.62958
879.258	92.82323
879.43	81.45727
879.601	68.87956
879.773	74.22578
879.945	18.12086
880.116	31.75317
880.288	18.65067
880.459	22.63519
880.631	15.36935
880.802	19.51586
880.974	17.69947
881.145	11.22014
881.317	16.99776
881.488	11.30895
881.66	13.13181
881.831	10.7201
882.002	17.61926
882.174	10.91243
882.345	15.76693
882.517	5.25388
882.688	20.09602
882.859	14.32157
883.03	25.92752
883.202	24.23389
883.373	18.49344
883.544	17.97139
883.715	33.73625
883.887	28.56806
884.058	22.47551
884.229	35.65537
884.4	35.66711
884.571	41.91956
884.742	33.47508
884.914	37.5657
885.085	57.28902
885.256	79.48094
885.427	61.22591
885.598	71.4302
885.769	72.92543
885.94	74.19006
886.111	47.52687
886.282	92.62637
886.453	71.53026
886.624	53.57063
886.795	94.38527
886.966	72.20983
887.136	99.20979
887.307	66.82708
887.478	140.59319
887.649	109.07943
887.82	116.65742
887.991	87.99136
888.161	130.71242
888.332	117.43169
888.503	64.58321
888.674	165.70835
888.844	190.71558
889.015	139.37413
889.186	69.36857
889.356	174.952
889.527	60.32135
889.698	236.7323
889.868	94.21738
890.039	131.18874
890.209	112.52442
890.38	137.9301
890.551	133.55235
890.721	185.7037
890.892	145.74759
891.062	108.12019
891.233	134.14155
891.403	110.78778
891.574	74.76781
891.744	110.32516
891.914	125.92019
892.085	118.38521
892.255	32.6194
892.425	173.78593
892.596	125.32622
892.766	136.4842
892.936	184.91845
893.107	145.00766
893.277	74.24494
893.447	63.139
893.618	46.62354
893.788	101.1103
893.958	58.1657
894.128	52.07594
894.298	64.65025
894.468	85.09502
894.639	38.67453
894.809	23.63378
894.979	41.71468
895.149	51.75175
895.319	38.0596
895.489	50.18041
895.659	71.37865
895.829	43.69571
895.999	45.62016
896.169	32.80338
896.339	46.1368
896.509	88.75125
896.679	95.86925
896.849	92.2332
897.019	131.83057
897.189	104.32979
897.358	92.32549
897.528	135.10262
897.698	41.78557
897.868	127.83342
898.038	207.91408
898.208	226.46455
898.377	51.35212
898.547	201.32988
898.717	270.8277
898.886	121.12873
899.056	218.91739
899.226	292.48217
899.395	180.63575
899.565	263.45527
899.735	175.56919
899.904	232.55801
900.074	235.66594
900.244	92.22297
900.413	364.23789
900.583	70.51665
900.752	168.01999
900.922	260.99012
901.091	15.60918
901.261	240.30058
901.43	194.9697
901.599	202.52607
901.769	499.34221
901.938	257.84572
902.108	209.48195
902.277	296.52505
902.446	91.36926
902.616	106.96385
902.785	130.97905
902.954	238.97834
903.124	152.95643
903.293	128.88457
903.462	65.46038
903.631	104.83549
903.801	78.87578
903.97	36.45147
904.139	63.29941
904.308	49.38075
904.477	40.13434
904.646	23.80781
904.816	36.50646
904.985	53.25642
905.154	81.45753
