Data from WindowProjectSample_Transmission__2__00002.txt Node

Date: Sat May 03 14:51:53 EDT 2025
User: jessi
Spectrometer: SR400872
Trigger mode: 0
Integration Time (sec): 5.000000E-1
Scans to average: 6
Electric dark correction enabled: true
Nonlinearity correction enabled: true
Boxcar width: 0
XAxis mode: Wavelengths
Number of Pixels in Spectrum: 3648
>>>>>Begin Spectral Data<<<<<
184.909	-15031.88739
185.132	2424.46309
185.355	-2106.0488
185.578	13936.13798
185.801	-113.49374
186.024	10463.12073
186.247	627.53579
186.47	-943.43785
186.693	49.51029
186.916	-793.60912
187.139	6022.82944
187.362	1708.00506
187.585	14601.51074
187.808	3078.7996
188.031	-88.73122
188.254	4709.32937
188.476	-21065.15809
188.699	1766.56611
188.922	2336.90677
189.145	3355.1162
189.368	-462.94611
189.591	1458.07952
189.813	-6493.37931
190.036	2568.55255
190.259	1111.37392
190.482	-9337.70038
190.705	-3866.62291
190.927	1460.56606
191.15	-13871.4352
191.373	21167.43571
191.595	-2578.41211
191.818	2062.38244
192.041	-251.50586
192.263	1021.68924
192.486	-247.56479
192.709	-6886.15766
192.931	12140.2884
193.154	6243.44438
193.377	-12009.05822
193.599	-1610.22866
193.822	-967.1085
194.044	2068.26055
194.267	1089.81204
194.489	41.33938
194.712	1552.40118
194.934	93477.74744
195.157	1621.38372
195.379	867.3474
195.602	-4399.62391
195.824	1568.47486
196.047	-1183.48016
196.269	193097.52745
196.492	-2352.28481
196.714	4408.6505
196.936	3890.0236
197.159	2580.67081
197.381	6324.83724
197.604	266.97913
197.826	2400.32666
198.048	10103.65465
198.271	-19775.92721
198.493	2272.58183
198.715	2221.37452
198.938	-623.44098
199.16	2555.39729
199.382	1557.2702
199.604	-2998.32982
199.827	-5373.61817
200.049	-2316.70104
200.271	3943.08462
200.493	10107.99002
200.715	6146.76044
200.938	-10607.19168
201.16	-13811.09512
201.382	899.87389
201.604	-1108.89061
201.826	2410.22291
202.048	2785.38653
202.27	5179.95105
202.492	-3005.1912
202.715	-1365.70495
202.937	-2322.87445
203.159	1398.17524
203.381	2038.19527
203.603	24189.45234
203.825	3126.38487
204.047	-12180.75682
204.269	5342.79585
204.491	-829.0318
204.713	2081.11886
204.935	-20017.31442
205.156	-2122.78417
205.378	6871.80334
205.6	-1767.19156
205.822	2705.4549
206.044	-1089.02889
206.266	985.80064
206.488	1035.24809
206.71	2190.79447
206.932	-3679.94611
207.153	-1670.28056
207.375	-8431.28522
207.597	18509.23695
207.819	2062.46794
208.041	2425.94872
208.262	1526.49982
208.484	-1043.61354
208.706	-1117.63364
208.927	5012.43515
209.149	872.88617
209.371	-2806.63335
209.593	-745.45971
209.814	-2436.38435
210.036	-1006.4685
210.258	-3830.65469
210.479	-3899.01087
210.701	-4918.07161
210.922	5159.49536
211.144	-2453.47679
211.366	1264.5806
211.587	-23706.66447
211.809	-2182.13627
212.03	-1133.93991
212.252	704.07836
212.473	-4303.76688
212.695	1525.00172
212.916	-1621.48494
213.138	573.40278
213.359	-1077.80623
213.581	14163.61597
213.802	-290.22039
214.024	-1976.64633
214.245	-9188.80611
214.466	-197.91746
214.688	-2389.74181
214.909	-1586.85692
215.131	10210.55604
215.352	2629.79258
215.573	54266.16044
215.795	4978.73189
216.016	6185.07055
216.237	-722.78091
216.459	2351.13278
216.68	7164.92233
216.901	-4136.80598
217.122	4904.14892
217.344	1513.75346
217.565	-4793.58629
217.786	2245.50535
218.007	636.91522
218.228	825.17352
218.45	-2115.27668
218.671	2321.41482
218.892	2242.02443
219.113	963.1465
219.334	-331.80152
219.555	6062.53003
219.776	4328.94557
219.997	1468.21356
220.219	792.79106
220.44	1019.10539
220.661	1151.55136
220.882	5343.21502
221.103	3143.50114
221.324	1610.73137
221.545	67764.40653
221.766	-5827.54243
221.987	-780.70242
222.208	-2666.50511
222.429	5405.79626
222.65	-1700.76277
222.87	-1999.59515
223.091	3440.80591
223.312	-1985.2692
223.533	-4643.48852
223.754	2120.94152
223.975	1332.21292
224.196	-3578.60569
224.417	79780.45862
224.637	3191.60424
224.858	98.82087
225.079	3032.67422
225.3	2439.74625
225.521	4132.12441
225.741	2144.45469
225.962	861.60666
226.183	8637.34571
226.404	1303.67808
226.624	686.82988
226.845	820.58229
227.066	853.92617
227.286	516.06006
227.507	296.79774
227.728	192.68839
227.948	300.36246
228.169	90.09729
228.389	88.16086
228.61	51.25019
228.831	65.07374
229.051	7.69789
229.272	40.3365
229.492	56.35036
229.713	17.08793
229.933	42.87137
230.154	33.58275
230.374	58.53664
230.595	48.00938
230.815	33.24769
231.036	51.32132
231.256	-9.39893
231.477	92.141
231.697	50.13172
231.917	50.08045
232.138	79.00943
232.358	176.18506
232.579	153.79926
232.799	18.32905
233.019	140.10676
233.24	157.16937
233.46	58.72124
233.68	99.93162
233.901	62.24026
234.121	39.72424
234.341	13.41223
234.561	-1.05206
234.782	23.94031
235.002	98.8339
235.222	-4.17465
235.442	74.81092
235.662	40.98465
235.883	87.02277
236.103	74.43639
236.323	61.44379
236.543	35.08957
236.763	55.96049
236.983	67.00087
237.203	65.11553
237.423	87.87932
237.643	134.49723
237.864	129.19391
238.084	24.71593
238.304	38.60835
238.524	69.29586
238.744	54.42806
238.964	100.86978
239.184	84.13549
239.404	96.0614
239.624	44.48415
239.843	86.48014
240.063	43.87969
240.283	29.11566
240.503	33.91478
240.723	29.1553
240.943	16.13011
241.163	25.29639
241.383	17.28374
241.603	8.03582
241.822	11.16624
242.042	7.90467
242.262	9.80644
242.482	10.33463
242.702	12.94922
242.921	4.34595
243.141	8.68421
243.361	8.24816
243.581	11.76805
243.8	11.16057
244.02	6.37916
244.24	14.48336
244.459	14.18657
244.679	26.7141
244.899	16.43867
245.118	18.50142
245.338	16.25594
245.558	17.83827
245.777	10.99542
245.997	13.19742
246.216	12.30654
246.436	6.0414
246.655	4.8492
246.875	3.57777
247.094	7.49119
247.314	2.58542
247.533	4.38312
247.753	5.81237
247.972	4.61185
248.192	1.55164
248.411	2.55093
248.631	5.30748
248.85	6.38145
249.07	4.65142
249.289	9.55723
249.508	6.8185
249.728	10.51782
249.947	11.10071
250.166	12.00187
250.386	6.7153
250.605	9.43182
250.824	15.40467
251.044	11.27798
251.263	36.0028
251.482	18.37269
251.701	16.59967
251.921	0.57325
252.14	4.9447
252.359	5.57454
252.578	13.17023
252.798	4.49218
253.017	12.80537
253.236	6.6866
253.455	8.2884
253.674	16.48529
253.893	7.71712
254.112	10.47556
254.331	17.35868
254.551	15.57535
254.77	6.44569
254.989	20.30243
255.208	18.51716
255.427	22.74573
255.646	19.5148
255.865	34.13302
256.084	12.24506
256.303	14.43851
256.522	20.19012
256.741	4.57572
256.96	5.20567
257.179	12.76343
257.397	15.3717
257.616	7.75407
257.835	8.35935
258.054	20.28052
258.273	13.35231
258.492	14.99782
258.711	8.40641
258.93	3.30992
259.148	4.86415
259.367	6.06872
259.586	7.13746
259.805	3.38989
260.023	6.66355
260.242	5.17118
260.461	3.47977
260.68	1.84561
260.898	5.93916
261.117	1.87883
261.336	1.71381
261.554	5.60537
261.773	5.23114
261.992	1.12772
262.21	5.2885
262.429	6.03393
262.648	11.04323
262.866	12.73236
263.085	7.42358
263.303	7.55337
263.522	12.11042
263.74	12.49426
263.959	22.30721
264.178	11.4867
264.396	9.34368
264.615	7.15216
264.833	17.53995
265.051	14.78753
265.27	15.00083
265.488	16.40762
265.707	9.73866
265.925	15.61595
266.144	6.61916
266.362	8.36135
266.58	8.43467
266.799	6.99598
267.017	8.32171
267.235	7.69721
267.454	4.81297
267.672	2.60579
267.89	6.26289
268.109	6.9595
268.327	5.85215
268.545	1.42676
268.763	6.48238
268.982	2.09133
269.2	7.45103
269.418	4.77797
269.636	3.5086
269.854	5.59378
270.073	4.72695
270.291	2.33585
270.509	2.42154
270.727	5.67252
270.945	10.16684
271.163	10.142
271.381	2.35825
271.599	4.38864
271.817	7.25026
272.036	2.48125
272.254	4.2975
272.472	3.5334
272.69	3.69742
272.908	3.22314
273.126	6.26658
273.344	7.70217
273.562	2.76513
273.779	3.78534
273.997	5.9505
274.215	6.40767
274.433	4.5494
274.651	6.73089
274.869	7.0214
275.087	4.08054
275.305	6.56454
275.523	2.91726
275.74	4.42913
275.958	8.33637
276.176	11.81012
276.394	3.41074
276.612	5.06036
276.829	4.50493
277.047	3.63554
277.265	4.43811
277.483	5.60265
277.7	6.06068
277.918	5.33171
278.136	9.2593
278.353	4.72627
278.571	1.84513
278.789	7.68655
279.006	1.6758
279.224	4.46514
279.442	7.33284
279.659	5.37067
279.877	3.29861
280.094	8.23293
280.312	1.36832
280.529	4.68417
280.747	1.04296
280.964	3.74264
281.182	8.78068
281.399	3.99179
281.617	5.47357
281.834	3.67551
282.052	3.51889
282.269	4.65986
282.487	3.59405
282.704	2.86853
282.921	3.58478
283.139	4.50882
283.356	6.53444
283.574	4.96102
283.791	2.8978
284.008	7.61922
284.226	3.81937
284.443	4.65751
284.66	5.99872
284.877	4.79988
285.095	3.27101
285.312	2.03556
285.529	1.49231
285.746	1.22339
285.964	2.82875
286.181	1.69464
286.398	3.08358
286.615	4.03617
286.832	3.57193
287.05	1.16063
287.267	2.42825
287.484	3.2922
287.701	4.04546
287.918	3.89015
288.135	4.31783
288.352	1.98721
288.569	2.07426
288.786	3.63054
289.003	2.72513
289.22	4.53667
289.437	2.71991
289.654	4.31867
289.871	4.66427
290.088	4.46695
290.305	3.20724
290.522	2.67338
290.739	3.05082
290.956	4.7182
291.173	5.82502
291.39	4.95606
291.607	3.70635
291.824	2.71955
292.04	1.84035
292.257	4.15425
292.474	4.73898
292.691	3.07882
292.908	1.65094
293.125	2.75058
293.341	1.65199
293.558	7.85582
293.775	2.82313
293.992	3.31014
294.208	1.03951
294.425	1.83313
294.642	2.71013
294.858	3.67117
295.075	0.77615
295.292	3.02891
295.508	3.44502
295.725	5.64518
295.942	2.67298
296.158	1.79055
296.375	3.08238
296.591	2.19815
296.808	2.50947
297.024	2.77828
297.241	3.36165
297.458	3.59453
297.674	0.27201
297.891	2.81617
298.107	2.02224
298.323	1.65999
298.54	4.40411
298.756	1.96503
298.973	0.66115
299.189	4.26564
299.406	1.99162
299.622	4.35009
299.838	4.29219
300.055	3.81535
300.271	1.04576
300.487	1.41529
300.704	1.88166
300.92	1.12243
301.136	6.16527
301.353	4.26037
301.569	2.71578
301.785	3.56014
302.001	4.3279
302.218	3.39866
302.434	3.3975
302.65	1.07461
302.866	2.22727
303.083	5.71116
303.299	5.46391
303.515	2.89528
303.731	3.17381
303.947	0.94745
304.163	1.70993
304.379	3.43476
304.595	3.98072
304.812	1.98599
305.028	1.54555
305.244	2.45893
305.46	4.33302
305.676	4.32447
305.892	5.10754
306.108	3.11156
306.324	2.17722
306.54	5.59021
306.756	3.93704
306.972	4.05429
307.187	2.59444
307.403	5.20206
307.619	2.26485
307.835	4.56807
308.051	5.0899
308.267	0.93339
308.483	4.18747
308.699	3.73112
308.914	3.08608
309.13	2.77793
309.346	0.7499
309.562	1.6191
309.778	0.93367
309.993	3.79913
310.209	2.69715
310.425	1.13534
310.641	2.40198
310.856	1.34285
311.072	1.35698
311.288	2.87927
311.503	3.09075
311.719	0.49573
311.935	0.37629
312.15	3.15671
312.366	2.77362
312.581	3.8501
312.797	3.12135
313.013	3.98179
313.228	2.22738
313.444	3.15763
313.659	2.09539
313.875	3.31299
314.09	2.74935
314.306	4.56866
314.521	4.24077
314.737	3.89113
314.952	3.66838
315.168	2.91936
315.383	3.70057
315.599	2.68585
315.814	2.41303
316.029	4.02098
316.245	0.86294
316.46	1.13691
316.675	4.98527
316.891	6.02889
317.106	6.88534
317.321	4.06102
317.537	3.79098
317.752	4.16842
317.967	4.33675
318.183	1.99751
318.398	2.85828
318.613	4.69915
318.828	5.42853
319.043	4.18219
319.259	2.30439
319.474	3.83478
319.689	4.60937
319.904	1.05611
320.119	4.14148
320.334	3.6823
320.549	2.56917
320.765	5.1513
320.98	3.75432
321.195	4.55102
321.41	2.86142
321.625	4.57881
321.84	6.1439
322.055	5.88596
322.27	2.08786
322.485	1.35783
322.7	3.42207
322.915	4.97136
323.13	1.76287
323.345	4.94288
323.56	4.44437
323.775	4.08475
323.989	4.11641
324.204	3.25185
324.419	4.627
324.634	1.05333
324.849	2.99704
325.064	7.27025
325.279	4.70334
325.493	3.96019
325.708	4.42389
325.923	2.19263
326.138	2.02064
326.352	5.48105
326.567	4.60602
326.782	2.838
326.997	2.02547
327.211	4.10815
327.426	4.11836
327.641	2.32541
327.855	0.80354
328.07	3.90179
328.285	5.43788
328.499	2.53327
328.714	4.36222
328.928	4.63258
329.143	3.07419
329.358	4.78773
329.572	5.00412
329.787	5.0427
330.001	6.84131
330.216	1.16711
330.43	5.762
330.645	5.81175
330.859	4.61943
331.074	2.05044
331.288	3.65396
331.503	5.50005
331.717	1.44353
331.931	3.32043
332.146	3.37078
332.36	5.47581
332.575	4.18502
332.789	3.33369
333.003	3.15816
333.218	4.24881
333.432	2.74373
333.646	4.16672
333.86	5.43281
334.075	5.77952
334.289	2.91947
334.503	2.10155
334.717	4.32877
334.932	4.21607
335.146	5.20413
335.36	2.88375
335.574	4.30828
335.788	4.08575
336.003	5.26099
336.217	4.51462
336.431	4.25191
336.645	2.55653
336.859	1.35081
337.073	2.75306
337.287	3.6641
337.501	1.87944
337.715	3.33177
337.929	4.39017
338.143	1.76392
338.357	2.9091
338.571	1.9964
338.785	3.95334
338.999	2.64696
339.213	2.59022
339.427	1.13488
339.641	4.9713
339.855	2.74831
340.069	2.40251
340.283	4.75425
340.497	5.70551
340.711	3.79056
340.924	2.41839
341.138	1.91441
341.352	1.26708
341.566	3.48601
341.78	1.13757
341.993	2.44537
342.207	1.70512
342.421	3.35928
342.635	3.52365
342.848	2.46318
343.062	0.29795
343.276	2.44714
343.49	6.41171
343.703	2.31351
343.917	4.27943
344.131	4.30202
344.344	2.15766
344.558	2.44203
344.771	2.13451
344.985	5.22409
345.199	5.54123
345.412	3.31557
345.626	3.62103
345.839	0.77149
346.053	1.62141
346.266	1.75166
346.48	4.37285
346.693	3.57978
346.907	4.10018
347.12	1.87413
347.334	3.41401
347.547	3.63272
347.76	2.50692
347.974	4.5515
348.187	3.70118
348.401	2.90299
348.614	2.74371
348.827	2.72298
349.041	4.02874
349.254	0.85921
349.467	2.75482
349.681	1.15811
349.894	2.17118
350.107	4.76546
350.32	5.08308
350.534	0.96342
350.747	2.65644
350.96	1.94066
351.173	2.09506
351.386	2.60483
351.6	2.6284
351.813	1.98188
352.026	3.01189
352.239	1.30121
352.452	2.4384
352.665	3.59134
352.878	2.77341
353.092	6.1075
353.305	3.71879
353.518	3.36532
353.731	1.96883
353.944	4.81781
354.157	1.82312
354.37	1.68478
354.583	1.33933
354.796	0.77089
355.009	4.38717
355.222	2.46693
355.435	2.96051
355.647	4.42304
355.86	1.49331
356.073	2.5592
356.286	2.20874
356.499	3.80337
356.712	3.24997
356.925	3.59976
357.138	4.1756
357.35	1.56088
357.563	2.30231
357.776	2.75265
357.989	1.95667
358.201	3.55891
358.414	2.54703
358.627	4.30258
358.84	2.22422
359.052	1.40146
359.265	1.24828
359.478	4.20185
359.69	-0.68778
359.903	3.21171
360.116	3.45549
360.328	0.44475
360.541	3.63798
360.753	1.381
360.966	1.84524
361.179	1.71654
361.391	1.82098
361.604	1.17978
361.816	1.7771
362.029	1.40096
362.241	1.30991
362.454	1.7076
362.666	1.39308
362.879	2.34971
363.091	1.95182
363.304	1.54884
363.516	2.36813
363.728	0.86194
363.941	3.23191
364.153	1.40218
364.366	-0.25406
364.578	1.27986
364.79	2.91221
365.003	2.06361
365.215	2.09506
365.427	2.99931
365.639	4.06102
365.852	2.71472
366.064	5.29023
366.276	1.79227
366.488	3.06155
366.701	1.63618
366.913	2.20705
367.125	2.26217
367.337	1.57455
367.549	1.75742
367.762	2.35974
367.974	2.51687
368.186	1.33647
368.398	3.98059
368.61	3.32827
368.822	3.10486
369.034	2.47328
369.246	3.30304
369.458	5.41911
369.67	1.32863
369.882	4.8726
370.094	0.19578
370.306	4.68855
370.518	1.89776
370.73	1.26894
370.942	1.40459
371.154	1.80577
371.366	1.40622
371.578	2.5156
371.79	1.17323
372.002	4.10173
372.214	4.35327
372.425	2.65751
372.637	3.97915
372.849	2.19157
373.061	-0.16185
373.273	2.75267
373.484	2.99474
373.696	3.5674
373.908	-0.26269
374.12	3.52492
374.331	2.90954
374.543	1.27895
374.755	1.21034
374.967	2.76613
375.178	3.2408
375.39	2.1309
375.602	2.56972
375.813	0.93214
376.025	0.56162
376.236	2.11762
376.448	2.11288
376.66	1.54853
376.871	1.6938
377.083	3.72135
377.294	3.4904
377.506	1.6306
377.717	3.78564
377.929	2.26833
378.14	1.24313
378.352	2.77477
378.563	2.71948
378.775	3.81257
378.986	1.42746
379.197	2.18275
379.409	1.79201
379.62	3.0744
379.832	2.93659
380.043	1.79879
380.254	2.22942
380.466	0.69554
380.677	5.78011
380.888	4.96782
381.1	5.33397
381.311	4.76923
381.522	2.14677
381.733	5.72979
381.945	2.02025
382.156	2.67765
382.367	1.78872
382.578	5.76899
382.789	5.38336
383.001	2.01498
383.212	3.53891
383.423	4.00712
383.634	3.42468
383.845	2.52534
384.056	1.69915
384.267	1.90219
384.478	1.86961
384.69	0.66119
384.901	2.8438
385.112	2.71949
385.323	3.84547
385.534	2.78015
385.745	2.74763
385.956	2.83002
386.167	0.99073
386.378	2.69463
386.588	0.69043
386.799	1.23903
387.01	0.26566
387.221	3.26763
387.432	1.74269
387.643	4.58247
387.854	2.16647
388.065	1.70029
388.275	1.95843
388.486	1.95319
388.697	1.8942
388.908	1.98874
389.119	3.76214
389.329	4.19552
389.54	2.16294
389.751	2.93128
389.962	3.3881
390.172	2.39037
390.383	1.47747
390.594	1.41993
390.804	1.12183
391.015	1.12155
391.226	2.11013
391.436	2.66795
391.647	2.57348
391.858	2.68332
392.068	0.09462
392.279	0.58414
392.489	2.00368
392.7	3.37248
392.91	0.85684
393.121	1.30177
393.331	2.5206
393.542	3.28703
393.752	2.54577
393.963	2.05067
394.173	1.79235
394.384	2.5002
394.594	1.77475
394.804	0.81348
395.015	2.15951
395.225	2.61826
395.436	0.93599
395.646	2.83946
395.856	0.60055
396.067	0.78013
396.277	3.33424
396.487	2.39322
396.697	1.60539
396.908	3.1157
397.118	2.94177
397.328	2.22403
397.538	3.38378
397.749	1.18795
397.959	3.02273
398.169	3.27149
398.379	0.73047
398.589	2.7766
398.8	2.22133
399.01	1.30597
399.22	2.17362
399.43	4.75065
399.64	1.40169
399.85	3.01799
400.06	1.60102
400.27	1.72398
400.48	2.09643
400.69	3.99727
400.9	1.58673
401.11	1.30279
401.32	3.22905
401.53	1.46598
401.74	3.97599
401.95	3.23462
402.16	0.70151
402.37	2.26493
402.58	1.35521
402.79	2.86285
403	3.02605
403.209	1.63
403.419	3.14539
403.629	1.44774
403.839	2.80335
404.049	3.04083
404.258	1.16064
404.468	1.04809
404.678	2.69792
404.888	2.81525
405.097	1.09472
405.307	2.02361
405.517	2.56857
405.727	2.17307
405.936	1.89107
406.146	2.46088
406.356	3.76734
406.565	2.26185
406.775	1.31896
406.984	1.54226
407.194	4.16821
407.404	2.29604
407.613	2.6716
407.823	3.39218
408.032	3.24376
408.242	3.42963
408.451	1.85866
408.661	2.05284
408.87	4.14519
409.08	1.72687
409.289	2.85644
409.499	2.49665
409.708	2.49525
409.918	0.24234
410.127	2.37676
410.336	4.16286
410.546	3.20989
410.755	1.90765
410.964	1.90493
411.174	1.33978
411.383	3.09809
411.592	2.86847
411.802	1.15317
412.011	3.59785
412.22	2.3783
412.429	4.36797
412.639	4.01798
412.848	4.04087
413.057	4.51227
413.266	3.60826
413.475	2.51687
413.685	3.50789
413.894	3.52542
414.103	4.03024
414.312	3.41776
414.521	2.31425
414.73	3.13524
414.939	5.06017
415.148	3.05264
415.357	2.97611
415.566	2.32077
415.776	2.11053
415.985	2.06029
416.194	3.31996
416.403	4.66138
416.611	1.13412
416.82	1.9956
417.029	3.0241
417.238	1.82303
417.447	1.74186
417.656	2.13295
417.865	1.9315
418.074	2.34612
418.283	2.74261
418.492	3.38127
418.7	3.43221
418.909	4.39262
419.118	2.77353
419.327	3.31906
419.536	2.86667
419.744	2.28457
419.953	3.85692
420.162	3.62616
420.371	2.24099
420.579	2.23483
420.788	3.33887
420.997	3.39442
421.205	3.22615
421.414	3.08082
421.623	3.23429
421.831	2.68963
422.04	3.47427
422.249	2.55944
422.457	3.33103
422.666	2.68849
422.874	3.90312
423.083	3.91813
423.291	3.71266
423.5	3.32543
423.708	3.53596
423.917	4.10112
424.125	3.39139
424.334	2.92361
424.542	5.04163
424.751	4.22186
424.959	3.96794
425.167	4.69912
425.376	4.47833
425.584	3.79865
425.793	4.23177
426.001	3.17652
426.209	4.48801
426.418	3.22723
426.626	3.21992
426.834	3.15035
427.042	3.70974
427.251	3.0216
427.459	4.58286
427.667	3.75132
427.875	2.74769
428.084	3.31633
428.292	5.03911
428.5	4.43905
428.708	2.7771
428.916	2.70998
429.124	3.96976
429.333	3.42628
429.541	3.57108
429.749	3.76347
429.957	3.57762
430.165	6.30664
430.373	2.34968
430.581	3.88415
430.789	5.31012
430.997	3.56646
431.205	3.03955
431.413	3.8325
431.621	3.42314
431.829	4.57276
432.037	3.5245
432.245	4.16411
432.453	4.20318
432.661	3.58576
432.869	5.67072
433.076	2.99055
433.284	3.86031
433.492	4.66488
433.7	5.20249
433.908	3.65098
434.116	4.09411
434.323	4.48868
434.531	4.14412
434.739	4.5495
434.947	5.1732
435.154	5.27275
435.362	4.18915
435.57	3.91987
435.778	3.55819
435.985	4.48213
436.193	3.62631
436.401	5.23507
436.608	4.39067
436.816	3.63391
437.023	5.5555
437.231	6.02294
437.439	4.47151
437.646	4.94825
437.854	4.81842
438.061	5.10638
438.269	4.15037
438.476	5.02994
438.684	4.45382
438.891	3.97582
439.099	3.82696
439.306	3.18211
439.514	3.33674
439.721	4.9253
439.929	3.62006
440.136	4.71898
440.343	4.68205
440.551	4.04675
440.758	6.57096
440.965	4.98156
441.173	4.72945
441.38	4.14752
441.587	5.0691
441.795	4.30162
442.002	4.77688
442.209	4.92188
442.416	5.39021
442.624	5.31956
442.831	5.06451
443.038	4.0941
443.245	3.8269
443.452	4.17986
443.66	5.23444
443.867	3.99848
444.074	3.86441
444.281	3.79534
444.488	4.20716
444.695	4.47391
444.902	3.98987
445.109	5.13171
445.316	4.20595
445.523	4.24929
445.73	3.56076
445.937	4.50001
446.144	4.89301
446.351	5.12654
446.558	4.02287
446.765	5.30369
446.972	5.64017
447.179	4.58585
447.386	5.92758
447.593	4.58812
447.8	5.63377
448.007	4.66234
448.214	4.87439
448.42	4.37159
448.627	6.05779
448.834	4.77561
449.041	4.48306
449.248	4.56607
449.454	5.54093
449.661	6.64259
449.868	4.41653
450.075	3.98062
450.281	3.1395
450.488	3.94996
450.695	4.02857
450.901	3.85647
451.108	4.24894
451.315	5.86067
451.521	4.23969
451.728	5.72708
451.935	3.98866
452.141	4.5361
452.348	4.66249
452.554	4.64311
452.761	4.29803
452.967	6.35701
453.174	5.02148
453.38	4.96625
453.587	3.38523
453.793	5.05946
454	5.8698
454.206	7.00935
454.413	5.75835
454.619	5.38216
454.825	4.13318
455.032	5.33627
455.238	5.56305
455.445	3.5477
455.651	5.00681
455.857	3.10876
456.064	4.75355
456.27	4.49621
456.476	4.4877
456.682	3.50672
456.889	5.10215
457.095	5.26039
457.301	7.25588
457.507	4.82468
457.714	4.78524
457.92	4.66286
458.126	4.08862
458.332	4.25809
458.538	4.03498
458.744	4.40912
458.951	4.53921
459.157	6.48033
459.363	4.76505
459.569	4.64766
459.775	5.62892
459.981	4.40366
460.187	5.21876
460.393	5.60272
460.599	6.48584
460.805	5.42196
461.011	5.35079
461.217	6.43748
461.423	6.47674
461.629	5.32992
461.835	5.74296
462.041	4.93313
462.247	6.90666
462.453	5.13855
462.658	4.86856
462.864	5.89553
463.07	5.54611
463.276	5.26032
463.482	5.10569
463.688	6.46113
463.893	4.3901
464.099	4.90498
464.305	6.78052
464.511	4.37546
464.716	4.85199
464.922	5.79166
465.128	4.10231
465.333	6.57477
465.539	5.75735
465.745	5.33493
465.95	5.49321
466.156	8.63209
466.362	6.3682
466.567	5.17063
466.773	4.8087
466.978	6.92767
467.184	4.2914
467.389	3.3319
467.595	5.65136
467.8	4.61999
468.006	6.6852
468.211	6.53362
468.417	4.21038
468.622	5.65996
468.828	6.07536
469.033	5.42308
469.239	8.40118
469.444	4.66575
469.649	6.20684
469.855	4.92659
470.06	5.49002
470.266	4.27679
470.471	6.02086
470.676	5.78787
470.881	3.30855
471.087	6.91657
471.292	7.47021
471.497	3.84282
471.703	5.14649
471.908	4.72622
472.113	5.46037
472.318	6.29125
472.523	4.29557
472.729	5.57356
472.934	5.92445
473.139	4.91058
473.344	5.99733
473.549	6.72197
473.754	4.83787
473.959	8.00224
474.164	4.65131
474.369	5.26479
474.575	6.19327
474.78	5.51366
474.985	4.90825
475.19	3.47881
475.395	4.52217
475.6	5.09566
475.804	7.16648
476.009	5.12847
476.214	5.18337
476.419	5.06798
476.624	3.69757
476.829	4.60823
477.034	5.81803
477.239	4.6535
477.444	5.99521
477.648	5.84786
477.853	5.98385
478.058	5.03718
478.263	4.70183
478.468	4.51776
478.672	4.55631
478.877	6.90464
479.082	7.38694
479.287	5.78959
479.491	5.4396
479.696	4.47576
479.901	6.43618
480.105	6.09978
480.31	4.81279
480.515	5.35485
480.719	7.56134
480.924	4.82688
481.128	4.39111
481.333	5.44102
481.538	5.73313
481.742	4.97778
481.947	5.77145
482.151	5.58713
482.356	5.10644
482.56	5.93212
482.765	6.51598
482.969	8.0263
483.174	8.9191
483.378	10.90826
483.582	10.77925
483.787	11.95311
483.991	12.05272
484.196	12.143
484.4	11.84677
484.604	12.48088
484.809	10.80442
485.013	10.4885
485.217	9.31358
485.422	8.08124
485.626	7.40173
485.83	6.98308
486.034	6.65773
486.239	6.78665
486.443	6.75589
486.647	6.90244
486.851	7.76182
487.055	8.71551
487.26	8.11249
487.464	8.60203
487.668	8.05252
487.872	8.12247
488.076	8.79497
488.28	8.2202
488.484	7.54204
488.688	7.26389
488.892	7.25827
489.096	6.82543
489.3	6.46332
489.504	6.49126
489.708	6.8057
489.912	6.87334
490.116	6.55552
490.32	5.53973
490.524	5.98522
490.728	6.10112
490.932	6.05088
491.136	6.37494
491.34	7.33028
491.544	7.67775
491.748	7.13891
491.951	7.17583
492.155	6.86993
492.359	7.08952
492.563	5.80082
492.767	6.25027
492.97	6.26295
493.174	5.97568
493.378	6.44567
493.582	5.63543
493.785	5.98066
493.989	6.47766
494.193	6.31811
494.396	5.68988
494.6	6.61869
494.804	5.60983
495.007	5.13426
495.211	5.33602
495.414	5.25875
495.618	5.89021
495.822	6.83459
496.025	5.71884
496.229	6.42423
496.432	5.04929
496.636	5.7038
496.839	5.60829
497.043	7.07168
497.246	5.84075
497.45	5.37569
497.653	5.68362
497.856	5.87786
498.06	4.92793
498.263	5.70515
498.467	5.50626
498.67	6.72817
498.873	6.0392
499.077	5.66201
499.28	5.50623
499.483	6.04683
499.686	6.50901
499.89	5.97474
500.093	6.74325
500.296	4.86263
500.499	7.32577
500.703	5.71867
500.906	6.06178
501.109	7.53029
501.312	5.7954
501.515	5.59434
501.719	6.0101
501.922	6.85747
502.125	5.9201
502.328	5.43806
502.531	4.33066
502.734	5.73951
502.937	3.80861
503.14	5.87996
503.343	4.97474
503.546	5.26848
503.749	4.93515
503.952	6.30272
504.155	4.85926
504.358	6.20332
504.561	5.93123
504.764	4.3334
504.967	5.8434
505.17	5.67226
505.373	7.21688
505.576	5.44754
505.778	6.38558
505.981	4.96131
506.184	6.76313
506.387	3.97499
506.59	7.62951
506.793	6.57697
506.995	5.84411
507.198	3.6564
507.401	5.92799
507.604	6.17781
507.806	4.60149
508.009	4.86689
508.212	6.0993
508.414	4.95835
508.617	4.81003
508.82	5.59098
509.022	7.003
509.225	6.20185
509.427	4.2678
509.63	6.9543
509.833	5.50372
510.035	5.3555
510.238	4.36005
510.44	7.06424
510.643	3.85656
510.845	7.55955
511.048	6.0635
511.25	5.02404
511.453	5.42067
511.655	6.05096
511.858	5.5332
512.06	6.42394
512.262	5.82094
512.465	6.57069
512.667	5.3224
512.869	4.59402
513.072	5.98248
513.274	6.35546
513.476	6.08046
513.679	6.83667
513.881	4.74593
514.083	7.5014
514.286	4.82485
514.488	5.09935
514.69	4.69326
514.892	4.55912
515.094	6.43432
515.297	4.92193
515.499	5.86589
515.701	4.71025
515.903	7.50628
516.105	7.31978
516.307	6.56192
516.509	3.82628
516.711	4.59151
516.913	5.56753
517.116	5.41322
517.318	5.11511
517.52	6.49242
517.722	5.95129
517.924	4.57826
518.126	5.92254
518.328	4.86306
518.529	6.01568
518.731	7.40217
518.933	5.11979
519.135	5.57343
519.337	6.9822
519.539	6.3306
519.741	4.1558
519.943	5.41367
520.145	5.3029
520.346	6.59097
520.548	5.42449
520.75	5.86221
520.952	5.29837
521.153	6.22172
521.355	6.23571
521.557	4.46994
521.759	5.75122
521.96	5.55116
522.162	4.85295
522.364	6.80665
522.565	4.91827
522.767	6.24912
522.969	6.61477
523.17	5.85359
523.372	5.93862
523.573	5.00904
523.775	5.31242
523.977	4.44875
524.178	7.64047
524.38	4.93763
524.581	6.0351
524.783	4.99073
524.984	6.13076
525.186	5.47071
525.387	5.89368
525.589	5.51221
525.79	5.18093
525.991	4.80643
526.193	5.89969
526.394	4.58376
526.596	5.84781
526.797	5.84996
526.998	5.23571
527.2	4.54573
527.401	5.87316
527.602	5.61403
527.803	7.15752
528.005	7.23758
528.206	8.06379
528.407	8.6646
528.608	8.10797
528.81	8.34674
529.011	7.98556
529.212	8.82458
529.413	7.69457
529.614	7.34222
529.815	7.19738
530.017	6.80307
530.218	6.64906
530.419	6.20234
530.62	6.66339
530.821	6.48685
531.022	5.06098
531.223	6.5716
531.424	6.66365
531.625	6.17641
531.826	5.97932
532.027	5.82535
532.228	6.81009
532.429	5.79827
532.63	5.48362
532.831	5.78687
533.032	5.50324
533.233	6.22421
533.433	5.9665
533.634	6.27945
533.835	5.95289
534.036	5.54923
534.237	5.94497
534.438	5.84913
534.638	5.28211
534.839	5.72751
535.04	6.329
535.241	5.55489
535.441	7.57129
535.642	6.16385
535.843	4.55309
536.043	4.89426
536.244	4.95237
536.445	5.32894
536.645	6.44841
536.846	5.9131
537.047	6.96868
537.247	5.03476
537.448	5.53984
537.648	5.85327
537.849	5.80655
538.049	5.74975
538.25	6.49729
538.451	6.4956
538.651	5.08842
538.851	6.32231
539.052	7.05699
539.252	6.3802
539.453	5.56506
539.653	5.78396
539.854	5.54714
540.054	5.59254
540.254	6.35575
540.455	6.26747
540.655	5.01849
540.855	5.57675
541.056	6.25755
541.256	5.98919
541.456	6.85108
541.657	5.86953
541.857	6.89091
542.057	5.36711
542.257	5.3835
542.458	6.52011
542.658	7.10483
542.858	5.54548
543.058	7.04164
543.258	6.49756
543.458	4.87429
543.659	4.87269
543.859	6.65939
544.059	6.58375
544.259	5.86426
544.459	6.87227
544.659	5.12442
544.859	6.5094
545.059	5.23409
545.259	6.51145
545.459	5.96248
545.659	6.64669
545.859	5.97188
546.059	5.81711
546.259	4.80632
546.459	4.18686
546.659	4.68259
546.859	6.41363
547.059	6.12667
547.258	6.36094
547.458	6.31902
547.658	5.03634
547.858	4.78115
548.058	6.20726
548.258	5.82235
548.457	4.80588
548.657	8.73804
548.857	5.41063
549.057	6.80484
549.256	6.62229
549.456	5.57657
549.656	3.63736
549.855	7.99576
550.055	5.46918
550.255	8.08273
550.454	6.47107
550.654	7.2961
550.853	7.84244
551.053	7.03224
551.253	6.25581
551.452	6.82872
551.652	4.50802
551.851	4.1344
552.051	5.75743
552.25	5.38409
552.45	5.13138
552.649	5.39938
552.849	4.78862
553.048	5.93652
553.248	6.53189
553.447	4.84093
553.646	6.62558
553.846	8.80549
554.045	7.26956
554.244	4.41743
554.444	8.23215
554.643	4.98867
554.842	8.04732
555.042	9.13039
555.241	5.28395
555.44	4.74754
555.64	6.5823
555.839	8.56207
556.038	6.76709
556.237	5.27224
556.436	5.99524
556.636	7.13679
556.835	5.18347
557.034	8.1559
557.233	5.91658
557.432	4.63172
557.631	8.06952
557.83	5.82217
558.029	5.59397
558.228	5.38535
558.427	5.0703
558.626	6.64274
558.825	4.56192
559.024	6.32729
559.223	8.97651
559.422	6.00109
559.621	6.85085
559.82	2.63995
560.019	6.24124
560.218	6.01886
560.417	2.1624
560.616	5.27296
560.815	10.75636
561.014	4.05696
561.212	7.92966
561.411	6.25956
561.61	4.0876
561.809	5.83403
562.008	8.41197
562.206	6.14844
562.405	6.80463
562.604	5.61314
562.803	6.55036
563.001	5.8804
563.2	4.54193
563.399	7.3678
563.597	4.21386
563.796	6.13332
563.995	4.28651
564.193	6.89979
564.392	5.85087
564.59	9.15518
564.789	3.55897
564.988	5.12746
565.186	6.48338
565.385	6.01764
565.583	5.54262
565.782	5.58919
565.98	5.5368
566.179	5.82587
566.377	4.23911
566.575	4.90446
566.774	7.55552
566.972	7.22261
567.171	8.95739
567.369	8.1996
567.567	6.21675
567.766	6.45934
567.964	3.26783
568.162	6.79024
568.361	7.76476
568.559	5.68051
568.757	6.86529
568.956	6.27904
569.154	6.17552
569.352	7.3909
569.55	5.80924
569.748	5.94445
569.947	4.79258
570.145	5.12942
570.343	4.53407
570.541	7.84749
570.739	4.29386
570.937	5.73959
571.135	6.58843
571.333	8.78821
571.532	8.30567
571.73	6.23929
571.928	7.765
572.126	6.72212
572.324	4.9625
572.522	7.98459
572.72	9.84976
572.918	6.48826
573.116	6.95845
573.313	6.17956
573.511	6.35965
573.709	5.4438
573.907	7.20807
574.105	5.75874
574.303	3.63695
574.501	3.95404
574.699	6.85556
574.896	6.66527
575.094	6.82764
575.292	4.41014
575.49	7.72706
575.688	5.54941
575.885	8.11232
576.083	9.2443
576.281	7.29849
576.478	5.58482
576.676	7.0965
576.874	4.1574
577.071	5.8409
577.269	10.16672
577.467	6.23832
577.664	6.46214
577.862	7.90096
578.059	5.59198
578.257	7.71175
578.455	6.24542
578.652	6.87413
578.85	3.36736
579.047	6.52973
579.245	6.41971
579.442	6.31452
579.64	6.61127
579.837	3.50543
580.034	10.74011
580.232	6.32121
580.429	4.96783
580.627	7.00807
580.824	9.49756
581.021	6.97889
581.219	5.8275
581.416	5.69438
581.613	8.75202
581.811	9.08563
582.008	5.55153
582.205	7.80737
582.402	7.36775
582.6	10.73507
582.797	7.06628
582.994	6.95005
583.191	8.07678
583.388	6.52687
583.586	8.05455
583.783	9.65142
583.98	5.57766
584.177	7.23202
584.374	1.58082
584.571	6.61028
584.768	6.68595
584.965	5.91449
585.162	8.39568
585.359	9.4602
585.556	7.2757
585.753	7.23145
585.95	4.63497
586.147	5.93336
586.344	8.16777
586.541	6.42164
586.738	4.83118
586.935	6.98657
587.132	5.80193
587.329	9.12225
587.526	7.21342
587.722	15.8072
587.919	4.57459
588.116	7.83133
588.313	9.49154
588.51	10.7755
588.706	6.26962
588.903	7.97692
589.1	8.80659
589.297	11.64903
589.493	7.3999
589.69	8.35102
589.887	6.4187
590.083	5.29436
590.28	5.64887
590.477	8.54343
590.673	8.46098
590.87	9.78948
591.067	7.11015
591.263	8.44062
591.46	7.85584
591.656	6.68893
591.853	9.94691
592.049	5.52035
592.246	6.48703
592.442	9.86785
592.639	9.63593
592.835	5.51485
593.032	8.29844
593.228	4.1821
593.425	4.66596
593.621	4.30769
593.817	7.69144
594.014	5.59364
594.21	7.14116
594.406	9.13589
594.603	7.78256
594.799	6.14648
594.995	2.75421
595.192	9.37012
595.388	5.80247
595.584	6.05504
595.78	4.41803
595.977	11.60366
596.173	9.91208
596.369	6.33214
596.565	5.46358
596.761	4.16976
596.957	9.14727
597.154	5.59664
597.35	5.93147
597.546	5.43742
597.742	8.19253
597.938	7.4363
598.134	6.04679
598.33	8.11862
598.526	10.42285
598.722	7.94847
598.918	11.07035
599.114	8.39492
599.31	5.71368
599.506	8.03739
599.702	6.31489
599.898	7.44303
600.094	9.24478
600.29	9.06539
600.485	8.93698
600.681	6.94183
600.877	11.11452
601.073	7.93826
601.269	12.18481
601.465	10.2044
601.66	5.67103
601.856	3.91466
602.052	10.90451
602.248	6.55267
602.443	3.39377
602.639	4.7923
602.835	6.03204
603.03	5.64331
603.226	8.51457
603.422	5.16804
603.617	6.45465
603.813	6.19698
604.009	6.07961
604.204	9.13283
604.4	4.56785
604.595	8.9492
604.791	5.24611
604.986	7.46096
605.182	5.53734
605.377	6.22341
605.573	6.01536
605.768	7.35081
605.964	8.6274
606.159	8.94384
606.355	9.57852
606.55	6.76496
606.746	10.17927
606.941	7.29529
607.136	12.07236
607.332	13.62033
607.527	5.48322
607.722	8.26558
607.918	6.77414
608.113	6.1317
608.308	9.118
608.503	8.20976
608.699	7.79627
608.894	8.56287
609.089	5.7475
609.284	7.69647
609.479	6.54379
609.675	8.28126
609.87	6.89261
610.065	8.51116
610.26	9.67074
610.455	9.25077
610.65	7.32247
610.845	7.60202
611.04	9.61478
611.235	7.24971
611.43	6.81631
611.625	5.60069
611.82	11.08514
612.015	6.1822
612.21	11.17214
612.405	4.38606
612.6	12.4569
612.795	10.48918
612.99	9.95203
613.185	5.5969
613.38	5.85846
613.575	8.97793
613.77	15.32598
613.965	5.71606
614.159	6.03678
614.354	11.80769
614.549	11.56711
614.744	9.89765
614.938	6.39916
615.133	5.65705
615.328	12.11049
615.523	11.77114
615.717	15.67982
615.912	6.68474
616.107	8.6927
616.301	7.65194
616.496	6.85445
616.691	12.58755
616.885	10.08609
617.08	15.39563
617.274	11.78353
617.469	13.8356
617.664	10.05401
617.858	7.70653
618.053	9.36377
618.247	7.975
618.442	3.5332
618.636	13.07484
618.831	7.6058
619.025	6.85942
619.219	16.20168
619.414	0.97243
619.608	8.82248
619.803	6.61438
619.997	14.34776
620.191	12.25976
620.386	9.58881
620.58	9.10116
620.774	4.62923
620.969	4.71512
621.163	8.91529
621.357	5.6407
621.551	8.13597
621.746	9.45642
621.94	8.30303
622.134	18.12966
622.328	14.12351
622.522	5.42063
622.716	12.33725
622.911	11.11183
623.105	10.91096
623.299	9.34345
623.493	17.33932
623.687	6.29185
623.881	8.2363
624.075	10.235
624.269	12.20858
624.463	4.90005
624.657	5.3076
624.851	10.12165
625.045	11.27795
625.239	11.98313
625.433	7.86795
625.627	12.98094
625.821	6.65934
626.015	6.32425
626.209	8.61264
626.403	4.85986
626.596	8.84403
626.79	10.33888
626.984	5.72577
627.178	9.52794
627.372	10.06133
627.565	11.10496
627.759	4.81307
627.953	5.39666
628.147	10.13625
628.34	10.57263
628.534	14.46422
628.728	8.26508
628.921	11.5678
629.115	11.17083
629.309	11.49035
629.502	12.21164
629.696	8.9935
629.89	9.30678
630.083	10.02067
630.277	10.62068
630.47	14.22011
630.664	8.75017
630.857	5.25185
631.051	11.95137
631.244	13.02234
631.438	11.71425
631.631	7.91124
631.825	13.3038
632.018	11.23649
632.212	15.36083
632.405	12.44935
632.598	7.34174
632.792	9.82169
632.985	3.29986
633.178	7.92341
633.372	9.04013
633.565	8.32364
633.758	13.93677
633.952	6.57267
634.145	6.63762
634.338	8.60824
634.531	7.99218
634.724	7.15228
634.918	9.32621
635.111	8.12986
635.304	8.24062
635.497	16.89851
635.69	10.47155
635.883	13.68375
636.077	6.3794
636.27	11.44214
636.463	10.13018
636.656	11.17836
636.849	7.99585
637.042	11.49734
637.235	15.83612
637.428	13.01598
637.621	13.17606
637.814	15.42486
638.007	16.09808
638.2	15.65539
638.393	16.16605
638.586	6.90965
638.778	9.24431
638.971	11.71908
639.164	16.21367
639.357	12.22582
639.55	15.49867
639.743	13.51231
639.935	12.63447
640.128	18.68836
640.321	13.53532
640.514	11.28599
640.707	19.3543
640.899	13.18533
641.092	4.73192
641.285	41.51336
641.477	4.1065
641.67	19.85666
641.863	16.57069
642.055	12.12764
642.248	10.85067
642.441	9.69315
642.633	13.16483
642.826	15.07184
643.018	17.6932
643.211	17.55912
643.403	18.75416
643.596	19.45225
643.788	20.52876
643.981	11.05949
644.173	14.39231
644.366	11.20952
644.558	6.19094
644.751	16.50165
644.943	7.12903
645.135	19.82937
645.328	18.26684
645.52	14.10577
645.712	18.03217
645.905	25.4302
646.097	9.08857
646.289	13.78092
646.482	20.4505
646.674	10.18586
646.866	16.97399
647.058	15.36485
647.251	9.40013
647.443	10.03879
647.635	12.30052
647.827	9.54077
648.019	9.0213
648.211	12.62803
648.404	12.76975
648.596	19.74745
648.788	14.76721
648.98	13.80179
649.172	14.94771
649.364	15.00372
649.556	6.61155
649.748	22.70057
649.94	9.71967
650.132	14.99196
650.324	9.35268
650.516	10.83701
650.708	17.19387
650.9	7.37873
651.092	11.5584
651.284	6.01907
651.476	7.3998
651.667	14.74121
651.859	17.8222
652.051	12.0177
652.243	12.40928
652.435	11.17069
652.627	15.14667
652.818	14.01803
653.01	6.48732
653.202	9.13523
653.394	11.53742
653.585	15.41687
653.777	32.21467
653.969	19.64881
654.16	17.90772
654.352	9.30964
654.544	11.98836
654.735	20.17391
654.927	13.89213
655.118	20.98621
655.31	15.93814
655.502	18.28574
655.693	11.35668
655.885	15.91508
656.076	19.94217
656.268	13.16383
656.459	19.72644
656.651	19.79818
656.842	11.07894
657.034	11.65954
657.225	16.73351
657.416	18.90364
657.608	18.87787
657.799	13.48873
657.99	17.5115
658.182	9.36162
658.373	10.25865
658.564	16.11016
658.756	12.61522
658.947	11.55084
659.138	8.358
659.33	10.77735
659.521	9.2443
659.712	11.88895
659.903	12.04047
660.094	10.69182
660.286	7.56942
660.477	20.35372
660.668	15.79121
660.859	13.44135
661.05	8.02224
661.241	16.4446
661.432	15.53652
661.623	13.41076
661.814	12.40542
662.006	6.44931
662.197	14.88248
662.388	18.2477
662.579	15.04733
662.77	20.45879
662.96	29.61785
663.151	19.7417
663.342	6.97825
663.533	15.948
663.724	13.28066
663.915	23.55176
664.106	13.6686
664.297	23.83388
664.488	18.02761
664.678	12.03879
664.869	18.2873
665.06	20.21364
665.251	16.01203
665.442	17.09658
665.632	9.76849
665.823	24.70279
666.014	1.44839
666.204	19.11713
666.395	21.43333
666.586	31.03193
666.776	19.32283
666.967	24.04471
667.158	16.19432
667.348	23.28317
667.539	10.23984
667.729	19.04058
667.92	11.25059
668.111	20.55791
668.301	18.68674
668.492	14.7573
668.682	16.2041
668.873	15.03418
669.063	10.18792
669.253	15.70113
669.444	21.89912
669.634	14.95282
669.825	25.40251
670.015	20.87256
670.206	10.66955
670.396	27.81842
670.586	14.66734
670.777	19.02999
670.967	5.49271
671.157	15.36379
671.347	11.42785
671.538	25.85197
671.728	20.3313
671.918	25.15797
672.108	22.14387
672.299	17.1802
672.489	19.23534
672.679	14.41391
672.869	21.41317
673.059	27.87713
673.249	19.99182
673.44	10.93518
673.63	15.93884
673.82	24.09162
674.01	12.92613
674.2	20.5116
674.39	33.10715
674.58	19.97674
674.77	17.93536
674.96	17.67648
675.15	41.38121
675.34	25.00077
675.53	17.48242
675.72	14.95057
675.91	9.53848
676.099	28.65262
676.289	31.99189
676.479	24.70542
676.669	14.65267
676.859	21.44282
677.049	11.59268
677.238	18.40375
677.428	28.17183
677.618	20.5677
677.808	26.41366
677.997	20.12676
678.187	11.50435
678.377	17.80812
678.567	15.04291
678.756	13.61698
678.946	15.21617
679.136	9.99306
679.325	12.60759
679.515	11.57868
679.704	9.6374
679.894	19.77823
680.084	17.39036
680.273	22.12429
680.463	11.49464
680.652	10.94725
680.842	15.76821
681.031	22.07057
681.221	11.92977
681.41	18.01375
681.6	16.0775
681.789	20.53694
681.978	24.58847
682.168	20.07279
682.357	18.42486
682.547	22.45697
682.736	19.21391
682.925	27.26316
683.115	26.34964
683.304	22.38981
683.493	21.42215
683.682	22.7983
683.872	22.81957
684.061	28.39251
684.25	23.58401
684.439	33.45806
684.629	22.96198
684.818	42.68257
685.007	18.68156
685.196	17.85964
685.385	30.97271
685.574	22.21581
685.763	22.08843
685.952	20.95442
686.142	13.39111
686.331	29.43878
686.52	8.91741
686.709	31.65953
686.898	30.53494
687.087	24.94986
687.276	30.6016
687.465	27.86496
687.654	18.90259
687.842	31.34408
688.031	11.82941
688.22	30.98302
688.409	22.0475
688.598	23.20922
688.787	38.17549
688.976	22.48526
689.165	36.67334
689.353	19.14556
689.542	25.10638
689.731	26.49399
689.92	36.02115
690.108	28.04102
690.297	19.50996
690.486	23.47602
690.675	27.83856
690.863	35.99566
691.052	34.30248
691.241	25.5149
691.429	24.73721
691.618	32.86818
691.806	14.34624
691.995	20.40459
692.184	22.60391
692.372	19.26257
692.561	24.22623
692.749	23.88953
692.938	45.65705
693.126	28.8045
693.315	24.3729
693.503	27.21502
693.692	29.27028
693.88	32.15633
694.068	41.08685
694.257	22.54571
694.445	28.59426
694.634	10.72736
694.822	33.15747
695.01	36.07083
695.199	38.17766
695.387	36.97887
695.575	33.74413
695.763	25.01827
695.952	19.98952
696.14	11.53272
696.328	20.04743
696.516	25.45275
696.705	25.34597
696.893	26.15742
697.081	9.80765
697.269	29.12178
697.457	16.39775
697.645	13.16054
697.833	27.16653
698.021	16.32749
698.21	18.79579
698.398	19.66192
698.586	13.06763
698.774	13.13454
698.962	19.5501
699.15	14.606
699.338	11.80821
699.526	24.71702
699.714	17.83958
699.901	17.09
700.089	29.99292
700.277	16.14628
700.465	21.98249
700.653	28.76732
700.841	27.52467
701.029	17.21905
701.217	34.95304
701.404	28.49249
701.592	37.32987
701.78	44.28857
701.968	21.81241
702.155	25.69649
702.343	14.00623
702.531	38.89268
702.718	31.33776
702.906	23.50238
703.094	21.95217
703.281	40.02593
703.469	24.18251
703.657	36.89197
703.844	55.80959
704.032	43.32658
704.219	20.5726
704.407	32.68726
704.595	40.05756
704.782	29.31591
704.97	23.92506
705.157	23.69086
705.345	42.16591
705.532	56.41754
705.719	33.8428
705.907	43.83355
706.094	29.90258
706.282	48.0234
706.469	27.79281
706.656	29.32717
706.844	27.9149
707.031	37.77296
707.218	33.62781
707.406	44.6471
707.593	35.85632
707.78	35.87028
707.968	28.96523
708.155	22.94776
708.342	35.6995
708.529	35.81408
708.716	35.13299
708.904	45.05922
709.091	37.69359
709.278	17.82491
709.465	48.0159
709.652	44.67701
709.839	42.6592
710.026	37.08869
710.213	16.78747
710.4	34.41337
710.587	40.85545
710.774	43.95831
710.961	43.58284
711.148	32.21741
711.335	44.45319
711.522	31.66168
711.709	36.42504
711.896	54.15686
712.083	41.09485
712.27	23.19593
712.457	33.85598
712.644	18.41016
712.831	54.43574
713.017	33.95786
713.204	41.39841
713.391	24.2929
713.578	45.42999
713.765	47.83783
713.951	41.10306
714.138	64.82315
714.325	39.35688
714.512	33.54714
714.698	25.13556
714.885	48.73897
715.072	38.90552
715.258	34.59853
715.445	28.3343
715.631	47.59173
715.818	10.891
716.005	29.79587
716.191	42.49381
716.378	29.80395
716.564	41.40432
716.751	27.83593
716.937	30.31022
717.124	50.65746
717.31	28.0908
717.497	60.00481
717.683	29.81639
717.869	64.67165
718.056	33.919
718.242	44.1459
718.429	37.87712
718.615	23.13031
718.801	41.4028
718.988	54.15748
719.174	44.97977
719.36	36.59578
719.547	51.23854
719.733	45.5278
719.919	43.841
720.105	53.0491
720.291	37.16763
720.478	46.03489
720.664	36.36163
720.85	34.57094
721.036	78.11708
721.222	59.79297
721.408	39.17533
721.595	67.50972
721.781	63.17648
721.967	61.49278
722.153	63.10733
722.339	51.12819
722.525	52.12678
722.711	33.65613
722.897	25.14044
723.083	40.61597
723.269	59.71498
723.455	79.80029
723.641	90.99991
723.827	49.51957
724.012	48.63861
724.198	45.69342
724.384	60.1181
724.57	49.67707
724.756	19.19144
724.942	18.79099
725.127	57.98247
725.313	62.44051
725.499	64.22789
725.685	73.50581
725.87	48.64963
726.056	36.30645
726.242	61.27554
726.428	26.71341
726.613	58.94502
726.799	40.32388
726.985	28.56581
727.17	26.72809
727.356	75.32178
727.541	31.199
727.727	42.81127
727.913	54.43529
728.098	38.83693
728.284	54.01397
728.469	26.25113
728.655	34.11128
728.84	55.84476
729.026	53.22171
729.211	56.0173
729.397	47.68717
729.582	53.70263
729.767	42.39697
729.953	46.94608
730.138	60.73627
730.323	15.18094
730.509	29.63623
730.694	66.99112
730.879	52.29835
731.065	49.40488
731.25	78.71933
731.435	51.52154
731.621	26.87638
731.806	36.74831
731.991	48.19333
732.176	25.35315
732.361	64.01182
732.547	51.48911
732.732	21.51665
732.917	76.07819
733.102	29.504
733.287	36.87789
733.472	47.1136
733.657	46.41199
733.842	27.58032
734.027	41.71181
734.212	43.82785
734.397	33.5606
734.582	48.8345
734.767	59.80356
734.952	67.52419
735.137	13.20333
735.322	71.83755
735.507	44.00196
735.692	53.20894
735.877	81.35425
736.062	80.27461
736.247	51.47537
736.431	52.07867
736.616	67.9947
736.801	54.25725
736.986	52.79626
737.171	37.92567
737.355	25.75245
737.54	74.0295
737.725	50.23494
737.909	97.53807
738.094	44.1468
738.279	66.67714
738.463	48.55569
738.648	62.60021
738.833	54.045
739.017	84.12968
739.202	49.98245
739.386	55.63863
739.571	36.183
739.756	64.64565
739.94	54.88602
740.125	69.29962
740.309	43.99305
740.494	69.76964
740.678	55.10955
740.863	60.84947
741.047	51.73008
741.231	77.71459
741.416	42.8595
741.6	81.52832
741.785	41.21134
741.969	72.85477
742.153	78.83678
742.338	16.78326
742.522	53.85334
742.706	68.30915
742.89	30.9389
743.075	61.93877
743.259	82.65756
743.443	74.97369
743.627	86.11868
743.812	100.70351
743.996	32.0629
744.18	61.10194
744.364	44.63249
744.548	102.73594
744.732	54.9814
744.916	69.97377
745.1	69.54957
745.285	50.74148
745.469	72.29219
745.653	96.26757
745.837	35.59731
746.021	99.73361
746.205	76.74278
746.389	64.44836
746.573	56.7166
746.757	91.66708
746.94	48.30468
747.124	86.58603
747.308	40.3973
747.492	77.06048
747.676	50.50062
747.86	103.59076
748.044	54.10298
748.227	21.51084
748.411	141.80305
748.595	73.46047
748.779	46.91845
748.963	74.85221
749.146	64.12474
749.33	50.70943
749.514	37.49607
749.697	84.95939
749.881	47.5815
750.065	43.3731
750.248	59.95203
750.432	111.40482
750.616	68.09795
750.799	30.14582
750.983	104.60137
751.166	130.43689
751.35	28.43955
751.533	78.61547
751.717	93.53241
751.9	103.79939
752.084	50.12132
752.267	40.15899
752.451	45.6022
752.634	60.73248
752.818	68.56029
753.001	83.67553
753.184	82.15574
753.368	73.29229
753.551	-1.90677
753.734	46.36727
753.918	111.84233
754.101	52.46897
754.284	78.62123
754.467	54.99552
754.651	51.82135
754.834	57.87653
755.017	96.03277
755.2	89.0478
755.384	36.35525
755.567	79.02928
755.75	96.58745
755.933	54.84446
756.116	78.21838
756.299	46.69615
756.482	44.7323
756.665	82.21006
756.848	68.4985
757.032	82.08134
757.215	33.4199
757.398	45.41757
757.581	42.54794
757.764	123.85244
757.947	71.09245
758.129	98.24242
758.312	4.6459
758.495	66.21506
758.678	62.19344
758.861	61.54542
759.044	126.71092
759.227	53.31236
759.41	46.19694
759.592	80.73034
759.775	64.74193
759.958	90.59305
760.141	35.45727
760.324	111.15037
760.506	97.72372
760.689	83.77075
760.872	129.96411
761.054	78.4993
761.237	57.54136
761.42	77.8808
761.602	87.68144
761.785	78.01287
761.968	86.98882
762.15	101.33473
762.333	63.03842
762.515	68.98593
762.698	46.47983
762.88	69.67175
763.063	64.07459
763.245	72.13644
763.428	40.04492
763.61	45.96748
763.793	30.14141
763.975	61.69329
764.158	44.66217
764.34	41.54426
764.522	36.69911
764.705	50.76205
764.887	91.01559
765.069	28.37568
765.252	76.6356
765.434	83.72061
765.616	63.02751
765.799	47.66923
765.981	76.54564
766.163	45.75797
766.345	91.62452
766.528	55.86774
766.71	11.76109
766.892	71.40305
767.074	92.55466
767.256	58.95393
767.438	117.8236
767.62	81.00187
767.802	142.59406
767.985	84.69581
768.167	139.56007
768.349	56.40452
768.531	103.30494
768.713	82.30677
768.895	96.9278
769.077	92.64031
769.259	178.3209
769.441	216.15296
769.623	113.57665
769.804	139.41226
769.986	137.39004
770.168	169.65202
770.35	206.03786
770.532	138.51951
770.714	153.56467
770.896	176.42509
771.077	47.58871
771.259	168.19102
771.441	172.60051
771.623	173.44431
771.804	260.021
771.986	56.11994
772.168	119.71279
772.35	157.21343
772.531	239.2773
772.713	149.02536
772.894	194.19252
773.076	113.2655
773.258	100.79971
773.439	207.13739
773.621	189.59985
773.802	73.11899
773.984	124.06506
774.166	149.60684
774.347	230.97913
774.529	165.26245
774.71	39.21786
774.891	117.96909
775.073	118.17627
775.254	245.23899
775.436	111.49402
775.617	225.13182
775.799	150.67313
775.98	240.06809
776.161	225.53047
776.343	198.08788
776.524	120.62146
776.705	142.13132
776.886	58.22193
777.068	141.10803
777.249	284.9776
777.43	206.20662
777.611	71.95838
777.793	147.39032
777.974	219.69856
778.155	119.29717
778.336	93.74135
778.517	214.83899
778.698	106.37068
778.879	44.73246
779.061	8.42073
779.242	181.51424
779.423	183.30077
779.604	95.57763
779.785	127.18888
779.966	176.61143
780.147	167.17099
780.328	210.78726
780.509	250.4388
780.69	182.97357
780.871	111.81769
781.051	57.57812
781.232	144.75387
781.413	150.39606
781.594	126.04829
781.775	106.20415
781.956	102.60395
782.137	48.99834
782.317	110.57085
782.498	155.54875
782.679	158.32589
782.86	141.75481
783.04	94.70503
783.221	156.52235
783.402	240.38224
783.583	129.8638
783.763	188.72528
783.944	119.62256
784.124	66.31108
784.305	245.82752
784.486	191.41216
784.666	134.74386
784.847	47.71832
785.027	356.9539
785.208	102.87373
785.388	91.47821
785.569	96.33544
785.749	112.21883
785.93	107.18706
786.11	70.16531
786.291	154.57796
786.471	187.65388
786.652	182.26472
786.832	131.69278
787.012	157.03633
787.193	81.55359
787.373	128.93224
787.553	99.23518
787.734	141.14643
787.914	102.1891
788.094	166.97744
788.275	129.81505
788.455	102.35209
788.635	68.74564
788.815	139.84676
788.995	68.72073
789.176	70.49751
789.356	93.45487
789.536	131.48624
789.716	151.6968
789.896	91.22567
790.076	104.18916
790.256	139.03578
790.436	24.91403
790.616	79.97106
790.796	148.62787
790.976	108.19098
791.156	104.69842
791.336	174.57815
791.516	138.54157
791.696	128.86615
791.876	60.70227
792.056	150.19136
792.236	204.23764
792.416	178.99182
792.596	175.28363
792.776	158.28383
792.956	188.95485
793.135	220.6747
793.315	73.55605
793.495	210.89095
793.675	154.32921
793.854	180.16465
794.034	184.81073
794.214	80.73606
794.394	211.57394
794.573	180.41388
794.753	137.03201
794.933	106.40669
795.112	151.93852
795.292	190.9401
795.472	240.94628
795.651	78.56231
795.831	137.86708
796.01	95.93288
796.19	123.51723
796.369	113.76884
796.549	146.26938
796.728	110.88217
796.908	80.66407
797.087	83.49514
797.267	148.44405
797.446	87.2472
797.626	137.13048
797.805	152.54875
797.984	92.42471
798.164	147.08943
798.343	90.00145
798.522	149.35516
798.702	127.99468
798.881	76.72595
799.06	127.72118
799.239	53.25343
799.419	93.75157
799.598	206.10072
799.777	169.61315
799.956	192.48625
800.136	118.63346
800.315	98.3039
800.494	157.65089
800.673	174.6021
800.852	177.81986
801.031	190.94103
801.21	182.6011
801.389	109.78304
801.568	170.86322
801.747	261.05686
801.926	143.88692
802.105	238.18883
802.284	118.74158
802.463	232.72143
802.642	155.33046
802.821	156.3322
803	256.47943
803.179	178.19134
803.358	215.08033
803.537	108.55009
803.716	178.92249
803.895	114.13154
804.073	124.41361
804.252	148.40441
804.431	172.75623
804.61	168.70975
804.789	193.68018
804.967	102.78415
805.146	111.04575
805.325	297.75661
805.503	185.23211
805.682	79.14211
805.861	367.92865
806.039	209.62731
806.218	91.46754
806.397	149.3516
806.575	153.18002
806.754	155.9254
806.932	91.87156
807.111	239.14779
807.289	203.52781
807.468	167.29711
807.646	210.87764
807.825	133.62807
808.003	167.27821
808.182	218.60757
808.36	166.58226
808.539	108.2897
808.717	292.21554
808.895	116.44026
809.074	169.70334
809.252	134.7326
809.43	270.50372
809.609	271.56486
809.787	287.48726
809.965	153.06575
810.144	176.27686
810.322	112.27075
810.5	273.57335
810.678	158.69789
810.856	304.13718
811.035	274.67172
811.213	191.91302
811.391	189.71938
811.569	170.38988
811.747	328.0854
811.925	231.50789
812.103	133.62756
812.281	133.09642
812.459	344.73276
812.637	285.30922
812.816	260.44654
812.994	291.33138
813.171	267.54206
813.349	240.53365
813.527	260.22092
813.705	314.15732
813.883	265.68136
814.061	372.01538
814.239	294.47448
814.417	331.66711
814.595	244.60768
814.773	224.60312
814.95	239.84177
815.128	226.2792
815.306	194.83706
815.484	176.30581
815.662	126.85992
815.839	129.70152
816.017	152.97645
816.195	226.76888
816.372	179.42276
816.55	249.04481
816.728	333.04334
816.905	163.29849
817.083	291.13489
817.261	202.12078
817.438	433.0941
817.616	337.96886
817.793	167.60037
817.971	246.87404
818.148	187.40919
818.326	258.61593
818.503	195.2957
818.681	329.23857
818.858	152.19632
819.036	185.40421
819.213	190.67645
819.391	118.20397
819.568	99.80569
819.745	99.26682
819.923	173.18707
820.1	99.21101
820.277	88.85014
820.455	103.09456
820.632	112.77071
820.809	126.64177
820.986	63.90068
821.164	43.42834
821.341	34.24736
821.518	54.88757
821.695	36.94981
821.872	32.21061
822.05	24.75509
822.227	18.22268
822.404	18.97579
822.581	25.60812
822.758	18.40319
822.935	20.92154
823.112	24.83981
823.289	18.84145
823.466	25.60871
823.643	24.19335
823.82	32.01919
823.997	27.69059
824.174	35.77962
824.351	55.97832
824.528	48.85983
824.705	43.70414
824.882	52.87834
825.059	73.40879
825.236	46.40702
825.412	49.52482
825.589	63.66219
825.766	109.3631
825.943	58.70351
826.12	70.53415
826.296	36.59304
826.473	57.81699
826.65	57.01291
826.827	71.83173
827.003	41.42184
827.18	47.06737
827.357	55.51455
827.533	47.56029
827.71	18.59291
827.887	41.83082
828.063	52.20172
828.24	41.90174
828.416	65.52185
828.593	54.45068
828.769	86.53687
828.946	108.13382
829.122	114.58405
829.299	121.85399
829.475	36.24604
829.652	100.74991
829.828	187.78398
830.005	135.13092
830.181	188.26058
830.357	110.09243
830.534	197.07649
830.71	147.82673
830.886	224.67386
831.063	159.58355
831.239	258.62062
831.415	82.27542
831.592	278.90821
831.768	166.87465
831.944	101.49201
832.12	243.0385
832.296	219.55311
832.473	180.49371
832.649	109.82044
832.825	151.80296
833.001	80.62324
833.177	118.58183
833.353	105.65046
833.529	52.83894
833.705	82.81193
833.881	52.22858
834.058	64.12338
834.234	54.85436
834.41	57.48638
834.586	45.49285
834.761	55.11354
834.937	66.23186
835.113	75.21046
835.289	70.41066
835.465	84.51256
835.641	77.42191
835.817	95.12586
835.993	195.68501
836.169	80.33055
836.344	146.09379
836.52	196.93349
836.696	217.92431
836.872	118.27203
837.048	549.76759
837.223	179.96419
837.399	351.15223
837.575	256.57166
837.75	280.21977
837.926	333.02106
838.102	521.59817
838.277	452.15643
838.453	886.82094
838.628	670.70498
838.804	294.94138
838.98	699.00537
839.155	400.67587
839.331	503.48758
839.506	289.68298
839.682	239.01313
839.857	291.11741
840.033	318.08002
840.208	112.61648
840.384	58.39538
840.559	175.58998
840.734	262.52971
840.91	320.55983
841.085	290.31853
841.26	303.23239
841.436	240.34506
841.611	239.36599
841.786	307.1734
841.962	710.7913
842.137	468.69675
842.312	195.84213
842.487	398.53356
842.663	296.83704
842.838	399.18971
843.013	1719.86772
843.188	639.12393
843.363	416.89892
843.538	1063.6644
843.714	1436.12816
843.889	695.19383
844.064	805.1788
844.239	502.06253
844.414	3148.35726
844.589	840.70642
844.764	2116.44666
844.939	1104.44468
845.114	1197.98222
845.289	1274.88207
845.464	2369.31912
845.639	1039.26201
845.814	1636.74304
845.989	1535.35699
846.163	731.59522
846.338	965.04498
846.513	1266.89182
846.688	590.32336
846.863	1031.26752
847.038	1413.14785
847.212	603.2087
847.387	786.51201
847.562	3057.28796
847.737	4003.30871
847.911	559.18479
848.086	572.0934
848.261	1087.51479
848.435	487.94578
848.61	994.2525
848.785	661.29396
848.959	1191.21984
849.134	1733.08155
849.308	5952.8551
849.483	2402.30196
849.658	-32643.11016
849.832	826.34568
850.007	470.79315
850.181	5449.04012
850.356	-2235.35415
850.53	2183.53546
850.705	856.20992
850.879	536.57667
851.053	804.5887
851.228	1597.72057
851.402	1258.25766
851.577	780.75419
851.751	1359.44614
851.925	1002.88266
852.099	711.45523
852.274	1086.99185
852.448	3045.41144
852.622	2545.52377
852.797	971.55528
852.971	1087.82095
853.145	1259.56673
853.319	2181.09768
853.493	6257.9539
853.668	1024.10313
853.842	5998.8082
854.016	1372.20384
854.19	1512.83623
854.364	1064.53836
854.538	951.93585
854.712	85410.22815
854.886	587.98437
855.06	938.31714
855.234	325.60289
855.408	921.99419
855.582	1622.70959
855.756	-39545.31603
855.93	1556.69078
856.104	7244.80285
856.278	1794.24166
856.452	979.36727
856.626	1188.91735
856.8	1445.1329
856.973	1188.38017
857.147	3755.75803
857.321	2132.27791
857.495	1610.54951
857.669	962.94433
857.842	1469.02615
858.016	1787.63493
858.19	-2041.70456
858.364	2687.17449
858.537	2299.4304
858.711	1069.66551
858.885	2506.30639
859.058	1642.48003
859.232	4703.40514
859.405	984.68785
859.579	845.80507
859.753	1937.86932
859.926	929.18904
860.1	3832.47573
860.273	10683.71835
860.447	979.89448
860.62	1200.90703
860.794	1698.13999
860.967	3377.54919
861.141	1170.88334
861.314	4558.63401
861.487	1344.91336
861.661	1932.21435
861.834	5820.59447
862.008	4335.61686
862.181	-16320.14526
862.354	-12198.85569
862.528	1087.55574
862.701	2403.25292
862.874	626.26905
863.047	1684.2678
863.221	837.48821
863.394	560.96143
863.567	805.25476
863.74	773.86071
863.913	1398.21486
864.087	4365.89177
864.26	2377.74049
864.433	1424.52443
864.606	1397.17361
864.779	-3372.32769
864.952	710.82117
865.125	-44703.74142
865.298	1471.96223
865.471	-1932.27641
865.644	4488.16788
865.817	1093.79369
865.99	1535.67977
866.163	1648.46718
866.336	1240.1705
866.509	3418.10164
866.682	-1771.00097
866.855	9687.33684
867.028	365.49388
867.2	1538.32763
867.373	203.18334
867.546	1515.85613
867.719	3215.77543
867.892	3010.78242
868.064	574.42348
868.237	931.80668
868.41	2386.74596
868.583	610.57207
868.755	590.39893
868.928	1667.09648
869.101	1624.91032
869.273	2006.90368
869.446	1196.04873
869.619	1441.92466
869.791	1162.7512
869.964	6592.24043
870.136	-3225.08194
870.309	-13105.25103
870.481	663.65043
870.654	448.63275
870.826	1022.31702
870.999	487.72495
871.171	1118.38069
871.344	570.41038
871.516	708.97565
871.689	781.02369
871.861	867.50473
872.033	3048.2994
872.206	781.67502
872.378	1419.21187
872.55	3076.33978
872.723	-1105.79923
872.895	1283.63072
873.067	1379.19509
873.24	1089.85469
873.412	3280.8301
873.584	2746.25425
873.756	1161.25187
873.928	1470.14676
874.101	1652.29124
874.273	1825.09529
874.445	329.49172
874.617	1202.02745
874.789	614.29881
874.961	1127.0745
875.133	1371.95639
875.305	1052.58052
875.477	959.69565
875.649	449.54435
875.821	829.24185
875.993	1268.59097
876.165	2368.70828
876.337	790.07689
876.509	992.80437
876.681	898.35868
876.853	730.46228
877.025	1078.9171
877.197	775.71045
877.369	762.42439
877.541	857.72166
877.712	351.15828
877.884	451.08614
878.056	2318.59192
878.228	572.66577
878.4	868.78529
878.571	504.09565
878.743	316.02711
878.915	641.15498
879.086	268.03896
879.258	458.63173
879.43	357.11978
879.601	309.03955
879.773	282.9143
879.945	46.64834
880.116	82.45727
880.288	51.39098
880.459	51.59818
880.631	34.22611
880.802	43.57187
880.974	37.56302
881.145	20.24381
881.317	35.19537
881.488	23.88429
881.66	25.86234
881.831	23.91235
882.002	37.70057
882.174	24.3819
882.345	37.49587
882.517	12.69193
882.688	49.03093
882.859	37.25305
883.03	74.20199
883.202	73.91019
883.373	58.22988
883.544	62.23872
883.715	133.50863
883.887	111.71391
884.058	86.81213
884.229	148.59203
884.4	147.35336
884.571	181.18317
884.742	136.76588
884.914	184.81289
885.085	305.23959
885.256	417.01028
885.427	240.83885
885.598	347.10825
885.769	340.4139
885.94	408.05785
886.111	243.10261
886.282	445.8119
886.453	577.5732
886.624	368.46055
886.795	642.85315
886.966	684.68046
887.136	1061.75233
887.307	642.0813
887.478	798.72571
887.649	741.70591
887.82	1550.57197
887.991	491.11435
888.161	1182.7235
888.332	1017.85364
888.503	364.79516
888.674	1266.09118
888.844	1301.613
889.015	-84529.96979
889.186	1011.23816
889.356	1229.25334
889.527	-18628.98795
889.698	2935.78099
889.868	1437.55009
890.039	1103.52646
890.209	1238.82672
890.38	816.38742
890.551	1446.94952
890.721	1265.60622
890.892	978.4085
891.062	2572.39879
891.233	1031.03434
891.403	1184.99628
891.574	1697.19336
891.744	2670.15175
891.914	705.19018
892.085	2150.76028
892.255	219.53975
892.425	1343.11593
892.596	1066.79484
892.766	804.28224
892.936	1064.0061
893.107	754.36639
893.277	500.24416
893.447	1022.22522
893.618	369.79372
893.788	484.15214
893.958	284.38673
894.128	217.33581
894.298	274.73393
894.468	331.5115
894.639	98.10381
894.809	65.47794
894.979	152.64134
895.149	181.69862
895.319	145.08215
895.489	197.24223
895.659	349.61298
895.829	192.99305
895.999	187.24342
896.169	184.08665
896.339	302.0505
896.509	657.87884
896.679	604.62417
896.849	829.05471
897.019	775.79633
897.189	3636.25147
897.358	537.95555
897.528	2135.2059
897.698	-5423.8002
897.868	667.50607
898.038	2055.29842
898.208	1931.03703
898.377	666.41589
898.547	4895.90738
898.717	4137.94201
898.886	845.10731
899.056	2096.97264
899.226	4339.31086
899.395	-6118.29391
899.565	-6994.31616
899.735	-5746.93679
899.904	8757.96441
900.074	18209.43776
900.244	2352.14528
900.413	8226.8066
900.583	-893.79939
900.752	-1064.61164
900.922	1302.01517
901.091	71.65119
901.261	1568.79405
901.43	3126.26018
901.599	1217.84777
901.769	1998.32431
901.938	7051.60388
902.108	937.50531
902.277	2869.21542
902.446	1477.47803
902.616	834.31799
902.785	2443.87723
902.954	1998.56872
903.124	1081.13434
903.293	746.72081
903.462	313.98573
903.631	531.30333
903.801	283.57763
903.97	150.64226
904.139	243.40407
904.308	171.02585
904.477	138.79844
904.646	82.89547
904.816	120.1675
904.985	260.03421
905.154	336.81253
