Data from WindowProjectSample_Transmission__83__00083.txt Node

Date: Sat May 03 18:07:56 EDT 2025
User: jessi
Spectrometer: SR400872
Trigger mode: 0
Integration Time (sec): 5.000010E-1
Scans to average: 6
Electric dark correction enabled: true
Nonlinearity correction enabled: true
Boxcar width: 0
XAxis mode: Wavelengths
Number of Pixels in Spectrum: 3648
>>>>>Begin Spectral Data<<<<<
184.909	3379.80249
185.132	3984.39441
185.355	-4155.29551
185.578	4128.69563
185.801	-508.51338
186.024	-4922.03936
186.247	1603.09653
186.47	516.48968
186.693	19.64361
186.916	4797.9051
187.139	3165.46495
187.362	-2044.39971
187.585	5343.93752
187.808	25381.64919
188.031	114.81131
188.254	-4429.9586
188.476	862.28271
188.699	3735.29278
188.922	-134.45864
189.145	-7005.48732
189.368	-353.34008
189.591	-732.18098
189.813	-3102.76521
190.036	937.39297
190.259	-9012.86388
190.482	1397.34219
190.705	3949.70324
190.927	-1979.06611
191.15	-6990.03659
191.373	6507.70741
191.595	-1262.68091
191.818	2060.66692
192.041	-607.54795
192.263	1980.01247
192.486	-2465.30225
192.709	-22354.10632
192.931	1787.78577
193.154	-3801.35064
193.377	-2423.01593
193.599	4834.73171
193.822	1887.79612
194.044	5618.24009
194.267	861.23577
194.489	-42.21532
194.712	2485.05067
194.934	8885.60871
195.157	-20759.0624
195.379	2016.99431
195.602	1678.16553
195.824	1435.88545
196.047	44144.63347
196.269	3180.83725
196.492	-1950.53691
196.714	-1247.3683
196.936	1884.83094
197.159	-11463.35574
197.381	-399.20503
197.604	-4692.20754
197.826	-16539.20659
198.048	10316.84511
198.271	-8895.05088
198.493	4312.52378
198.715	3603.52867
198.938	-590.81338
199.16	-19592.60927
199.382	1191.78756
199.604	-1731.30912
199.827	-3656.61559
200.049	2292.3401
200.271	-6605.98832
200.493	-45324.84129
200.715	3865.6491
200.938	-3040.82137
201.16	-2569.7111
201.382	-1720.62888
201.604	-3428.50179
201.826	3519.42501
202.048	3487.42648
202.27	-1107.48133
202.492	-3470.9311
202.715	-1383.27839
202.937	-17495.98564
203.159	2575.41066
203.381	2259.43665
203.603	-3256.63899
203.825	-957.24715
204.047	56301.88115
204.269	-1403.36432
204.491	-1258.55737
204.713	65163.06723
204.935	-3176.02442
205.156	-985.6662
205.378	-4874.33335
205.6	-1206.16992
205.822	2371.90885
206.044	-441.91967
206.266	6258.78048
206.488	813.58484
206.71	3401.72043
206.932	1578.32588
207.153	-1607.19186
207.375	-2937.50585
207.597	3803.53055
207.819	29616.55098
208.041	4080.99137
208.262	-1716.44911
208.484	-1225.06145
208.706	-1460.19876
208.927	3322.83812
209.149	4631.39473
209.371	-5363.64556
209.593	324.48085
209.814	-27053.31425
210.036	2287.16393
210.258	-862.00189
210.479	4237.20692
210.701	-3212.57903
210.922	-11330.90145
211.144	-912.98648
211.366	4972.15949
211.587	-2477.10534
211.809	-4869.808
212.03	-834.14979
212.252	-521.67088
212.473	3363.81784
212.695	-685.48026
212.916	-879.48921
213.138	550.73147
213.359	-1397.87294
213.581	12458.60081
213.802	-2143.52281
214.024	-2457.22951
214.245	-6567.31384
214.466	-327.39955
214.688	-3153.70842
214.909	-18597.46301
215.131	-4683.98657
215.352	-2160.62168
215.573	11741.33353
215.795	1579.89925
216.016	6562.15581
216.237	-526.85758
216.459	6785.37797
216.68	-3330.28001
216.901	-2799.47904
217.122	-2260.89089
217.344	-6832.1745
217.565	-2832.99491
217.786	2310.11434
218.007	1783.95654
218.228	-488.17464
218.45	-4273.10282
218.671	1408.02642
218.892	3611.02095
219.113	1794.50949
219.334	315.36128
219.555	-7478.15452
219.776	12352.66666
219.997	4142.19488
220.219	1878.06846
220.44	1120.34435
220.661	1001.2835
220.882	-2657.27854
221.103	-1141.72755
221.324	2691.20677
221.545	2942.77681
221.766	-3268.73079
221.987	-540.67866
222.208	-10915.091
222.429	170772.96447
222.65	-334.08581
222.87	-9800.18665
223.091	2701.85331
223.312	-1168.29165
223.533	2534.02596
223.754	2021.5197
223.975	2650.09393
224.196	-5639.32137
224.417	-2692.33001
224.637	7653.9258
224.858	1904.42658
225.079	1388.79683
225.3	1155.79393
225.521	4779.08603
225.741	925.68025
225.962	1141.42614
226.183	-474.32782
226.404	1493.05524
226.624	1128.98008
226.845	1565.32873
227.066	906.33984
227.286	554.89903
227.507	201.06885
227.728	185.72376
227.948	288.61957
228.169	89.25092
228.389	98.85636
228.61	48.51692
228.831	64.28028
229.051	8.5417
229.272	39.86727
229.492	48.49853
229.713	16.1611
229.933	40.51384
230.154	32.84624
230.374	56.79657
230.595	41.2274
230.815	27.05731
231.036	38.03016
231.256	-4.70004
231.477	74.13524
231.697	46.46099
231.917	49.84785
232.138	71.4086
232.358	131.18022
232.579	120.42461
232.799	14.3888
233.019	110.34434
233.24	138.36011
233.46	48.04477
233.68	84.0229
233.901	55.79185
234.121	31.03236
234.341	13.10404
234.561	0.6244
234.782	46.47706
235.002	81.58407
235.222	-0.7993
235.442	70.17542
235.662	39.04795
235.883	78.6076
236.103	62.36408
236.323	44.57863
236.543	37.24796
236.763	47.19792
236.983	44.01004
237.203	60.42377
237.423	78.53709
237.643	106.18393
237.864	92.25805
238.084	23.76927
238.304	40.05534
238.524	59.24102
238.744	42.90458
238.964	71.11704
239.184	69.5293
239.404	75.09533
239.624	40.61154
239.843	69.09482
240.063	36.31022
240.283	26.78457
240.503	29.5996
240.723	28.5479
240.943	12.21067
241.163	21.23428
241.383	15.32845
241.603	8.32155
241.822	8.98913
242.042	6.29535
242.262	9.43118
242.482	9.53305
242.702	11.55899
242.921	4.01037
243.141	7.93794
243.361	6.67463
243.581	10.49801
243.8	8.33948
244.02	5.72885
244.24	10.85053
244.459	10.5952
244.679	21.2121
244.899	13.88232
245.118	15.06276
245.338	14.10997
245.558	17.0154
245.777	9.4402
245.997	11.42211
246.216	11.0084
246.436	6.38569
246.655	4.37884
246.875	3.34812
247.094	6.62239
247.314	2.37659
247.533	3.75457
247.753	4.84671
247.972	3.8308
248.192	1.25421
248.411	2.46146
248.631	4.28711
248.85	5.313
249.07	3.99055
249.289	6.94178
249.508	5.32548
249.728	7.55747
249.947	8.58637
250.166	9.53529
250.386	4.97887
250.605	8.00001
250.824	12.36823
251.044	10.41895
251.263	27.90399
251.482	14.62596
251.701	13.46163
251.921	0.33648
252.14	4.50929
252.359	4.90195
252.578	11.21137
252.798	3.93495
253.017	10.31964
253.236	5.24682
253.455	7.13774
253.674	12.3018
253.893	6.32016
254.112	8.88319
254.331	13.23468
254.551	10.11533
254.77	6.02127
254.989	16.6685
255.208	13.14848
255.427	18.1244
255.646	16.19297
255.865	23.85074
256.084	9.70246
256.303	12.67504
256.522	15.63791
256.741	3.92191
256.96	4.68526
257.179	10.69392
257.397	12.20471
257.616	7.31648
257.835	7.1069
258.054	16.91261
258.273	10.97948
258.492	12.53411
258.711	7.40986
258.93	3.07957
259.148	4.57286
259.367	4.55118
259.586	5.84717
259.805	2.56615
260.023	5.60274
260.242	4.26278
260.461	3.02384
260.68	1.72498
260.898	4.97431
261.117	1.86653
261.336	1.40617
261.554	4.34231
261.773	3.92619
261.992	0.94118
262.21	4.31213
262.429	5.17855
262.648	8.06455
262.866	9.44846
263.085	6.29276
263.303	5.64141
263.522	9.97464
263.74	10.56688
263.959	16.1922
264.178	8.81566
264.396	7.61859
264.615	5.88669
264.833	13.35325
265.051	11.15077
265.27	10.96697
265.488	12.53772
265.707	7.67055
265.925	12.05293
266.144	5.79714
266.362	7.34617
266.58	7.12028
266.799	5.45155
267.017	6.90494
267.235	6.25265
267.454	3.60254
267.672	2.57214
267.89	5.00202
268.109	5.22207
268.327	4.90404
268.545	1.29898
268.763	4.61238
268.982	1.73845
269.2	5.93123
269.418	3.78454
269.636	2.8295
269.854	4.80335
270.073	4.22748
270.291	1.905
270.509	2.31188
270.727	5.15074
270.945	8.11684
271.163	8.08313
271.381	2.04264
271.599	3.5308
271.817	6.16439
272.036	2.20439
272.254	3.40205
272.472	2.75726
272.69	2.73107
272.908	2.74081
273.126	4.92744
273.344	6.16208
273.562	2.41252
273.779	2.8495
273.997	4.45981
274.215	4.91772
274.433	3.27541
274.651	5.16528
274.869	5.10883
275.087	3.29956
275.305	5.045
275.523	2.88908
275.74	3.53275
275.958	6.33166
276.176	8.93354
276.394	2.87012
276.612	3.76624
276.829	4.02698
277.047	3.13395
277.265	3.52296
277.483	4.27782
277.7	4.77782
277.918	3.80749
278.136	7.2494
278.353	3.33999
278.571	1.96257
278.789	5.70415
279.006	1.22533
279.224	3.22473
279.442	5.96437
279.659	3.86406
279.877	2.75002
280.094	6.28985
280.312	1.22737
280.529	3.99824
280.747	1.16526
280.964	3.08992
281.182	6.41931
281.399	3.18781
281.617	4.50235
281.834	3.08054
282.052	2.69389
282.269	3.70576
282.487	2.83896
282.704	2.47315
282.921	2.74321
283.139	3.79199
283.356	4.95064
283.574	4.18112
283.791	2.06097
284.008	5.78517
284.226	3.20225
284.443	3.77667
284.66	4.75574
284.877	3.9058
285.095	2.54276
285.312	1.94147
285.529	1.38109
285.746	0.97094
285.964	2.27875
286.181	1.56114
286.398	2.29481
286.615	3.18921
286.832	3.03681
287.05	0.92362
287.267	1.87565
287.484	2.27722
287.701	2.99024
287.918	2.87212
288.135	3.16655
288.352	1.42271
288.569	1.57856
288.786	2.77263
289.003	2.11037
289.22	3.17536
289.437	1.98366
289.654	3.4244
289.871	3.48872
290.088	3.29663
290.305	2.66201
290.522	2.07001
290.739	2.63605
290.956	3.61934
291.173	4.41558
291.39	3.84413
291.607	2.67469
291.824	2.02245
292.04	1.41803
292.257	3.42334
292.474	3.74047
292.691	2.41488
292.908	1.22709
293.125	2.06454
293.341	1.46685
293.558	5.82832
293.775	2.54213
293.992	2.12914
294.208	1.05924
294.425	1.38919
294.642	2.10758
294.858	3.34946
295.075	0.88584
295.292	2.29878
295.508	2.82264
295.725	4.16594
295.942	1.93866
296.158	1.52499
296.375	2.45105
296.591	1.7419
296.808	1.98803
297.024	2.25577
297.241	2.54979
297.458	2.62855
297.674	0.243
297.891	2.18077
298.107	1.62333
298.323	1.28993
298.54	3.05339
298.756	1.43067
298.973	0.70823
299.189	3.30926
299.406	1.41789
299.622	3.28651
299.838	3.1827
300.055	2.90405
300.271	0.87379
300.487	1.06904
300.704	1.40886
300.92	0.88503
301.136	4.3269
301.353	3.18866
301.569	2.33682
301.785	2.5607
302.001	3.18207
302.218	2.79133
302.434	2.68642
302.65	0.83128
302.866	1.88797
303.083	4.38913
303.299	4.21347
303.515	2.22351
303.731	2.42757
303.947	0.97978
304.163	1.47564
304.379	2.60993
304.595	2.83697
304.812	1.72142
305.028	1.5624
305.244	1.83103
305.46	3.28521
305.676	3.21874
305.892	3.55519
306.108	2.42332
306.324	1.70059
306.54	4.16021
306.756	3.13605
306.972	2.87496
307.187	2.02805
307.403	3.7727
307.619	1.74459
307.835	3.48349
308.051	3.70229
308.267	0.82324
308.483	3.26066
308.699	2.87433
308.914	2.37324
309.13	2.19765
309.346	0.69953
309.562	1.16776
309.778	0.77609
309.993	2.74524
310.209	2.14883
310.425	0.90547
310.641	1.95633
310.856	1.08539
311.072	1.08156
311.288	1.93881
311.503	2.34462
311.719	0.46237
311.935	0.40827
312.15	2.5054
312.366	2.14448
312.581	2.89058
312.797	2.37529
313.013	2.86428
313.228	1.73672
313.444	2.23085
313.659	1.58268
313.875	2.62076
314.09	1.99708
314.306	3.68791
314.521	3.07723
314.737	2.84658
314.952	2.5028
315.168	2.13055
315.383	2.93611
315.599	2.0618
315.814	2.02356
316.029	3.02605
316.245	1.03818
316.46	0.89568
316.675	3.5967
316.891	4.25771
317.106	5.08239
317.321	2.96777
317.537	2.79909
317.752	3.17406
317.967	3.2396
318.183	1.66521
318.398	1.88463
318.613	3.28808
318.828	3.80863
319.043	3.13444
319.259	1.96155
319.474	2.71883
319.689	3.45657
319.904	0.59527
320.119	3.0469
320.334	2.501
320.549	2.03673
320.765	3.2657
320.98	2.41443
321.195	3.34453
321.41	1.7966
321.625	3.01586
321.84	4.22694
322.055	4.21389
322.27	1.68818
322.485	1.2945
322.7	2.39486
322.915	3.44056
323.13	1.52539
323.345	3.88438
323.56	2.85456
323.775	3.07805
323.989	2.89701
324.204	2.47794
324.419	3.067
324.634	1.1196
324.849	2.15557
325.064	4.7291
325.279	3.42944
325.493	3.0274
325.708	3.45976
325.923	1.60039
326.138	1.55166
326.352	3.87547
326.567	3.31631
326.782	1.99535
326.997	1.65376
327.211	2.84336
327.426	2.86169
327.641	1.99602
327.855	0.73286
328.07	2.87901
328.285	4.21073
328.499	2.02495
328.714	3.1659
328.928	3.12693
329.143	2.50629
329.358	3.47813
329.572	3.38389
329.787	3.71789
330.001	4.97636
330.216	0.94611
330.43	4.13989
330.645	4.10925
330.859	3.30276
331.074	1.75677
331.288	2.48421
331.503	4.0101
331.717	1.18426
331.931	2.33607
332.146	2.51407
332.36	4.22285
332.575	3.02053
332.789	2.47389
333.003	2.37055
333.218	2.91511
333.432	1.9353
333.646	2.96113
333.86	3.9309
334.075	4.16191
334.289	1.97917
334.503	1.56112
334.717	3.16495
334.932	3.00161
335.146	3.89407
335.36	2.06926
335.574	3.06782
335.788	2.9653
336.003	3.70668
336.217	3.26806
336.431	2.96949
336.645	1.81814
336.859	1.37139
337.073	2.0198
337.287	2.55424
337.501	1.44108
337.715	2.63686
337.929	3.01848
338.143	1.43262
338.357	2.44418
338.571	1.55513
338.785	2.95514
338.999	1.87001
339.213	1.87838
339.427	0.90804
339.641	3.46257
339.855	2.16279
340.069	1.8007
340.283	3.35819
340.497	4.04643
340.711	2.81954
340.924	1.96356
341.138	1.33529
341.352	1.07103
341.566	2.50407
341.78	0.60763
341.993	1.8135
342.207	1.38148
342.421	2.63395
342.635	2.48067
342.848	1.72441
343.062	0.15674
343.276	1.78878
343.49	4.47086
343.703	1.68337
343.917	3.04941
344.131	3.18944
344.344	1.65455
344.558	1.96464
344.771	1.30654
344.985	3.48797
345.199	3.82861
345.412	2.39683
345.626	2.6318
345.839	0.70628
346.053	1.25343
346.266	1.21601
346.48	3.16857
346.693	2.44265
346.907	2.75887
347.12	1.33349
347.334	2.51101
347.547	2.59252
347.76	2.11258
347.974	3.24829
348.187	2.77335
348.401	1.93
348.614	1.77964
348.827	2.09294
349.041	2.97838
349.254	0.88935
349.467	2.12814
349.681	1.00718
349.894	1.69109
350.107	3.57851
350.32	3.60352
350.534	0.6853
350.747	1.8868
350.96	1.55583
351.173	1.70925
351.386	1.99359
351.6	1.87916
351.813	1.59946
352.026	2.18837
352.239	1.09836
352.452	1.88611
352.665	3.00399
352.878	1.86449
353.092	4.22083
353.305	2.70171
353.518	2.29599
353.731	1.30849
353.944	3.47007
354.157	1.7091
354.37	1.42327
354.583	1.14595
354.796	0.80144
355.009	3.12178
355.222	1.9897
355.435	2.09367
355.647	3.19715
355.86	1.2488
356.073	2.10922
356.286	1.70246
356.499	2.73381
356.712	2.3129
356.925	2.46882
357.138	3.02036
357.35	1.24037
357.563	1.76856
357.776	2.17955
357.989	1.80875
358.201	2.46239
358.414	2.11535
358.627	2.99334
358.84	1.84618
359.052	1.13802
359.265	1.06201
359.478	2.93826
359.69	-0.20647
359.903	2.56528
360.116	2.71586
360.328	0.64357
360.541	2.60839
360.753	1.28049
360.966	1.49004
361.179	1.6603
361.391	1.52237
361.604	1.04032
361.816	1.46133
362.029	1.25845
362.241	1.1793
362.454	1.49894
362.666	1.12031
362.879	1.98864
363.091	1.52635
363.304	1.2316
363.516	1.6304
363.728	0.90814
363.941	2.21377
364.153	1.61582
364.366	0.31022
364.578	1.07458
364.79	2.30185
365.003	1.954
365.215	1.42916
365.427	2.3687
365.639	2.95869
365.852	2.08742
366.064	3.36017
366.276	1.47372
366.488	2.23111
366.701	1.59138
366.913	1.57127
367.125	1.6827
367.337	1.32941
367.549	1.53352
367.762	1.86032
367.974	1.85567
368.186	1.42407
368.398	2.79027
368.61	2.31141
368.822	2.30956
369.034	1.70136
369.246	2.48166
369.458	3.93563
369.67	1.18629
369.882	3.39019
370.094	0.2947
370.306	3.22222
370.518	1.56925
370.73	1.26019
370.942	1.32506
371.154	1.62583
371.366	1.41028
371.578	2.11959
371.79	1.32868
372.002	2.84398
372.214	3.3753
372.425	1.83118
372.637	2.91544
372.849	1.99828
373.061	0.09871
373.273	2.21659
373.484	2.32855
373.696	2.62388
373.908	0.12361
374.12	2.86454
374.331	2.31036
374.543	1.33573
374.755	1.13866
374.967	2.05115
375.178	2.64623
375.39	1.92413
375.602	1.86416
375.813	0.98334
376.025	1.01948
376.236	1.94131
376.448	2.04216
376.66	1.66499
376.871	1.67504
377.083	2.59579
377.294	2.94954
377.506	1.48355
377.717	2.84565
377.929	2.1156
378.14	1.45584
378.352	2.37389
378.563	2.41186
378.775	2.97809
378.986	1.26054
379.197	2.11422
379.409	1.44299
379.62	2.5833
379.832	2.15084
380.043	1.8221
380.254	2.10244
380.466	1.10058
380.677	4.09774
380.888	3.6334
381.1	3.9453
381.311	3.93252
381.522	2.12552
381.733	4.3414
381.945	1.77878
382.156	1.96827
382.367	1.7694
382.578	4.27445
382.789	4.26201
383.001	1.65893
383.212	3.07032
383.423	3.44249
383.634	2.71446
383.845	2.53775
384.056	1.72094
384.267	1.98294
384.478	2.00757
384.69	1.2006
384.901	2.45607
385.112	2.36904
385.323	3.30448
385.534	2.3921
385.745	2.39762
385.956	2.33148
386.167	1.34059
386.378	2.4863
386.588	1.49273
386.799	1.36886
387.01	0.91714
387.221	2.85211
387.432	1.96659
387.643	3.32702
387.854	1.74726
388.065	1.69019
388.275	1.90318
388.486	1.66472
388.697	2.01001
388.908	1.80615
389.119	3.09215
389.329	3.30852
389.54	2.07233
389.751	2.58516
389.962	3.07326
390.172	2.12772
390.383	1.87469
390.594	1.61586
390.804	1.56855
391.015	1.64133
391.226	2.2429
391.436	2.61496
391.647	2.21788
391.858	2.53943
392.068	0.82639
392.279	1.36086
392.489	2.17472
392.7	2.84994
392.91	1.54092
393.121	1.65228
393.331	2.47072
393.542	3.0034
393.752	2.56316
393.963	2.4489
394.173	2.32013
394.384	2.72165
394.594	2.12814
394.804	1.38605
395.015	2.1257
395.225	2.62608
395.436	1.39543
395.646	2.54919
395.856	1.72116
396.067	1.2541
396.277	2.93467
396.487	2.42914
396.697	2.34515
396.908	2.92744
397.118	2.73957
397.328	2.33847
397.538	2.92772
397.749	1.80883
397.959	2.94002
398.169	2.64826
398.379	1.3064
398.589	2.61921
398.8	2.44694
399.01	2.23577
399.22	2.15637
399.43	3.79857
399.64	2.13989
399.85	2.72874
400.06	2.16543
400.27	1.82973
400.48	2.26819
400.69	3.26013
400.9	1.94158
401.11	1.69644
401.32	2.87351
401.53	1.86735
401.74	3.32322
401.95	2.82749
402.16	1.71572
402.37	2.56193
402.58	1.9588
402.79	2.73992
403	2.80035
403.209	1.77458
403.419	2.93224
403.629	1.85832
403.839	2.91023
404.049	2.94257
404.258	1.89733
404.468	1.79378
404.678	2.94969
404.888	3.00668
405.097	2.05646
405.307	2.22235
405.517	2.76129
405.727	2.6668
405.936	2.1282
406.146	2.59966
406.356	3.29393
406.565	2.26584
406.775	1.93747
406.984	1.94125
407.194	3.91478
407.404	2.35374
407.613	2.65469
407.823	3.08463
408.032	3.31838
408.242	3.13587
408.451	2.04292
408.661	2.30451
408.87	3.62801
409.08	1.91122
409.289	2.69174
409.499	2.55064
409.708	2.51575
409.918	1.00119
410.127	2.62242
410.336	3.5148
410.546	3.01399
410.755	2.22932
410.964	2.08312
411.174	1.72388
411.383	2.78864
411.592	2.64368
411.802	1.89401
412.011	3.02792
412.22	2.29479
412.429	3.42747
412.639	3.59501
412.848	3.2552
413.057	3.68039
413.266	3.31735
413.475	2.57389
413.685	3.07694
413.894	3.15929
414.103	3.27222
414.312	3.01864
414.521	2.39359
414.73	2.69782
414.939	3.94745
415.148	2.9271
415.357	2.89609
415.566	2.51295
415.776	2.43461
415.985	2.3342
416.194	3.16349
416.403	3.91887
416.611	1.85246
416.82	2.24847
417.029	2.7361
417.238	2.20936
417.447	2.21457
417.656	2.43761
417.865	2.23913
418.074	2.73497
418.283	2.99404
418.492	3.84795
418.7	3.69602
418.909	4.7575
419.118	3.48108
419.327	3.89814
419.536	3.59184
419.744	3.41803
419.953	4.68385
420.162	4.67627
420.371	3.67577
420.579	3.85483
420.788	4.82565
420.997	4.96289
421.205	4.91329
421.414	4.61182
421.623	4.8248
421.831	4.16793
422.04	5.01779
422.249	3.97649
422.457	4.61741
422.666	3.99623
422.874	5.07919
423.083	4.98376
423.291	4.92377
423.5	4.75145
423.708	4.81238
423.917	5.48281
424.125	4.69624
424.334	4.41946
424.542	6.51502
424.751	5.66771
424.959	5.22747
425.167	5.77435
425.376	5.49155
425.584	4.59383
425.793	4.74989
426.001	3.80144
426.209	4.54614
426.418	3.45168
426.626	3.28352
426.834	3.01054
427.042	3.33617
427.251	2.89319
427.459	3.74652
427.667	3.29318
427.875	2.28195
428.084	2.73783
428.292	3.88538
428.5	3.4387
428.708	2.46989
428.916	2.61742
429.124	3.17514
429.333	2.95169
429.541	3.11993
429.749	3.18522
429.957	3.12572
430.165	4.52348
430.373	2.28041
430.581	3.26814
430.789	4.01787
430.997	3.0357
431.205	2.68969
431.413	3.27535
431.621	2.96228
431.829	3.57119
432.037	3.01049
432.245	3.47716
432.453	3.51462
432.661	3.14485
432.869	4.55739
433.076	2.98178
433.284	3.54032
433.492	4.21
433.7	4.48303
433.908	3.41428
434.116	3.74578
434.323	3.78705
434.531	3.55432
434.739	3.7306
434.947	3.80021
435.154	3.93169
435.362	3.41237
435.57	3.18911
435.778	2.9197
435.985	3.51736
436.193	3.07797
436.401	4.14887
436.608	3.39045
436.816	3.00642
437.023	4.18833
437.231	4.38565
437.439	3.54474
437.646	3.77577
437.854	3.57751
438.061	3.90025
438.269	3.35035
438.476	3.80472
438.684	3.70924
438.891	3.69725
439.099	3.6356
439.306	3.14327
439.514	3.35998
439.721	4.5973
439.929	3.81247
440.136	4.79833
440.343	4.70714
440.551	4.32489
440.758	6.0813
440.965	5.00931
441.173	4.66628
441.38	4.18657
441.587	4.44317
441.795	4.14019
442.002	4.16245
442.209	4.07453
442.416	4.14509
442.624	3.96982
442.831	3.9498
443.038	3.33166
443.245	2.94283
443.452	3.29785
443.66	4.00013
443.867	3.29276
444.074	3.22529
444.281	3.41114
444.488	3.66476
444.695	3.92486
444.902	3.92674
445.109	5.01963
445.316	4.29105
445.523	4.57996
445.73	4.22641
445.937	5.04537
446.144	5.56406
446.351	5.94245
446.558	4.7015
446.765	6.33621
446.972	6.08795
447.179	5.46613
447.386	6.33058
447.593	4.88718
447.8	5.82229
448.007	4.69541
448.214	4.44264
448.42	3.96092
448.627	4.92851
448.834	3.9474
449.041	3.75294
449.248	3.54541
449.454	4.11007
449.661	4.54229
449.868	3.38801
450.075	3.24108
450.281	2.5634
450.488	3.0541
450.695	3.07335
450.901	3.07296
451.108	3.29261
451.315	4.26978
451.521	3.41987
451.728	4.13597
451.935	3.12439
452.141	3.4248
452.348	3.65938
452.554	3.51629
452.761	3.34187
452.967	4.66482
453.174	3.7033
453.38	3.69004
453.587	2.8482
453.793	3.67939
454	3.94508
454.206	4.81597
454.413	4.20068
454.619	3.86527
454.825	3.30072
455.032	4.12821
455.238	4.28505
455.445	2.87231
455.651	3.77889
455.857	2.62116
456.064	3.59458
456.27	3.50035
456.476	3.33035
456.682	2.73971
456.889	3.80148
457.095	4.02688
457.301	4.93861
457.507	3.62132
457.714	3.59758
457.92	3.60287
458.126	3.2701
458.332	3.59267
458.538	3.60842
458.744	3.91026
458.951	4.13743
459.157	5.96666
459.363	4.86118
459.569	5.07338
459.775	5.80542
459.981	5.15397
460.187	5.61169
460.393	5.86039
460.599	6.13405
460.805	5.37443
461.011	4.77726
461.217	5.12858
461.423	4.75737
461.629	3.79271
461.835	4.17241
462.041	3.56309
462.247	4.76914
462.453	3.75255
462.658	3.54999
462.864	4.283
463.07	4.03031
463.276	3.79834
463.482	3.8249
463.688	4.8773
463.893	3.4619
464.099	3.73788
464.305	4.82829
464.511	3.55162
464.716	3.70387
464.922	4.31603
465.128	3.24168
465.333	4.81637
465.539	4.21222
465.745	4.08988
465.95	3.85669
466.156	5.72207
466.362	4.48569
466.567	3.8679
466.773	3.64905
466.978	4.9209
467.184	3.37152
467.389	2.87192
467.595	4.09175
467.8	3.55225
468.006	4.57377
468.211	4.63217
468.417	3.31587
468.622	4.24937
468.828	4.41623
469.033	4.14704
469.239	5.68555
469.444	3.71317
469.649	4.49094
469.855	3.92526
470.06	3.97047
470.266	3.35796
470.471	4.4525
470.676	4.1586
470.881	2.78762
471.087	4.9899
471.292	5.17359
471.497	3.17992
471.703	3.7827
471.908	3.6988
472.113	4.11414
472.318	4.49928
472.523	3.36544
472.729	4.16117
472.934	4.34424
473.139	3.70967
473.344	4.39012
473.549	4.78749
473.754	3.66119
473.959	5.41098
474.164	3.65386
474.369	3.76458
474.575	4.51789
474.78	4.08615
474.985	3.56918
475.19	2.9082
475.395	3.63363
475.6	3.8316
475.804	4.89409
476.009	4.17014
476.214	3.98057
476.419	3.75581
476.624	3.18678
476.829	3.72661
477.034	4.33107
477.239	3.67969
477.444	4.12649
477.648	4.41827
477.853	4.42976
478.058	3.91293
478.263	3.64144
478.468	3.52381
478.672	3.50817
478.877	4.93691
479.082	5.18744
479.287	4.33427
479.491	4.12262
479.696	3.53501
479.901	4.66151
480.105	4.55783
480.31	3.71731
480.515	4.06699
480.719	5.51272
480.924	3.97837
481.128	3.74419
481.333	4.78027
481.538	4.81074
481.742	4.9327
481.947	5.88607
482.151	6.40079
482.356	6.63309
482.56	7.96419
482.765	8.8783
482.969	10.91576
483.174	12.25224
483.378	14.49547
483.582	14.58382
483.787	15.91404
483.991	15.93612
484.196	16.3271
484.4	15.93045
484.604	16.24007
484.809	14.27777
485.013	13.68602
485.217	12.11359
485.422	10.66065
485.626	9.58593
485.83	9.12217
486.034	8.67702
486.239	9.01407
486.443	9.24823
486.647	9.3188
486.851	10.41154
487.055	11.48769
487.26	10.98086
487.464	11.59877
487.668	10.93247
487.872	11.24182
488.076	11.6756
488.28	11.14256
488.484	10.17022
488.688	10.00458
488.892	9.73988
489.096	9.03095
489.3	8.08841
489.504	7.67274
489.708	7.53464
489.912	7.41922
490.116	7.15184
490.32	6.52326
490.524	7.54546
490.728	8.05887
490.932	8.28669
491.136	8.79645
491.34	9.76546
491.544	10.27234
491.748	9.76551
491.951	9.92175
492.155	9.50204
492.359	9.4023
492.563	8.00996
492.767	7.76372
492.97	6.84745
493.174	5.97486
493.378	5.63047
493.582	4.78781
493.785	4.61175
493.989	4.65052
494.193	4.50564
494.396	4.00611
494.6	4.46732
494.804	4.00477
495.007	3.74525
495.211	3.99904
495.414	3.9651
495.618	4.48626
495.822	5.05772
496.025	4.54927
496.229	5.14214
496.432	4.46168
496.636	4.77866
496.839	4.83458
497.043	5.80528
497.246	5.09214
497.45	4.69718
497.653	5.02176
497.856	4.80927
498.06	4.35825
498.263	4.4873
498.467	4.43333
498.67	5.09252
498.873	4.65655
499.077	4.1387
499.28	4.18316
499.483	4.53659
499.686	4.88767
499.89	4.44334
500.093	4.62408
500.296	3.79398
500.499	5.24767
500.703	4.26095
500.906	4.4336
501.109	5.25486
501.312	4.35588
501.515	4.13659
501.719	4.63065
501.922	5.02069
502.125	4.3797
502.328	4.27425
502.531	3.70228
502.734	4.38691
502.937	3.33409
503.14	4.44421
503.343	3.897
503.546	4.16596
503.749	3.90773
503.952	4.71375
504.155	3.86958
504.358	4.71333
504.561	4.39449
504.764	3.69842
504.967	4.4605
505.17	4.26318
505.373	5.24956
505.576	4.23715
505.778	4.73711
505.981	3.73183
506.184	5.11562
506.387	3.42865
506.59	5.4932
506.793	4.99215
506.995	4.66371
507.198	3.17094
507.401	4.59318
507.604	4.52457
507.806	3.73565
508.009	4.00879
508.212	4.82301
508.414	3.98628
508.617	4.00824
508.82	4.3246
509.022	5.23479
509.225	4.68113
509.427	3.52741
509.63	5.10221
509.833	4.41328
510.035	4.18193
510.238	3.48233
510.44	5.16171
510.643	3.3848
510.845	5.6248
511.048	4.71239
511.25	4.09577
511.453	4.27403
511.655	4.63208
511.858	4.29047
512.06	4.74559
512.262	4.39475
512.465	4.95617
512.667	4.2864
512.869	3.7183
513.072	4.58885
513.274	4.82872
513.476	4.80291
513.679	4.87598
513.881	3.86289
514.083	5.17151
514.286	3.91453
514.488	4.01788
514.69	3.85573
514.892	3.72842
515.094	4.90165
515.297	3.95545
515.499	4.49517
515.701	3.75108
515.903	5.51327
516.105	5.3133
516.307	4.81889
516.509	3.33003
516.711	3.78667
516.913	4.3552
517.116	4.29484
517.318	4.32183
517.52	5.15888
517.722	5.10953
517.924	4.27733
518.126	5.44143
518.328	4.87962
518.529	5.54063
518.731	6.39007
518.933	4.98977
519.135	5.27595
519.337	5.93394
519.539	5.26097
519.741	3.74564
519.943	4.38131
520.145	4.19746
520.346	4.89358
520.548	4.28529
520.75	4.55621
520.952	4.20677
521.153	4.49132
521.355	4.73269
521.557	3.88659
521.759	4.41435
521.96	4.33296
522.162	3.69938
522.364	4.87423
522.565	4.00367
522.767	4.91071
522.969	5.11257
523.17	4.59131
523.372	4.50978
523.573	4.1149
523.775	4.29208
523.977	3.81699
524.178	5.28787
524.38	4.05872
524.581	4.97227
524.783	4.47468
524.984	5.46816
525.186	5.28087
525.387	5.7638
525.589	5.60987
525.79	5.7163
525.991	5.31297
526.193	6.24849
526.394	5.20407
526.596	6.21585
526.797	6.46723
526.998	6.08199
527.2	5.99528
527.401	7.92863
527.602	8.48216
527.803	10.53291
528.005	10.72868
528.206	11.8073
528.407	12.38429
528.608	12.07292
528.81	12.55348
529.011	11.66249
529.212	12.65671
529.413	11.56813
529.614	10.5675
529.815	10.29942
530.017	9.36194
530.218	8.09501
530.419	7.03255
530.62	6.9119
530.821	6.6139
531.022	5.2173
531.223	6.43319
531.424	6.19984
531.625	6.31003
531.826	6.26473
532.027	6.53437
532.228	7.69582
532.429	7.40817
532.63	7.51813
532.831	8.23559
533.032	8.06891
533.233	9.04051
533.433	8.60716
533.634	8.86073
533.835	8.00526
534.036	7.52337
534.237	7.26059
534.438	6.56827
534.638	5.55499
534.839	5.58535
535.04	5.76919
535.241	5.12482
535.441	6.50155
535.642	5.75144
535.843	4.88794
536.043	5.24051
536.244	5.39311
536.445	5.60737
536.645	6.49775
536.846	6.09085
537.047	6.71173
537.247	5.17944
537.448	5.27191
537.648	5.38427
537.849	4.80772
538.049	4.67551
538.25	4.85145
538.451	4.8856
538.651	4.07201
538.851	4.81608
539.052	5.2869
539.252	5.08318
539.453	4.48848
539.653	4.90818
539.854	5.03465
540.054	5.56861
540.254	7.00174
540.455	7.70814
540.655	7.29326
540.855	8.45922
541.056	9.32628
541.256	8.75746
541.456	9.79394
541.657	8.98412
541.857	10.00155
542.057	8.30471
542.257	7.87996
542.458	8.46376
542.658	8.32554
542.858	6.61372
543.058	7.38959
543.258	6.68289
543.458	5.11928
543.659	4.97991
543.859	5.86666
544.059	5.70687
544.259	5.06678
544.459	5.32009
544.659	4.49517
544.859	4.92886
545.059	4.24835
545.259	5.05246
545.459	4.60795
545.659	5.2556
545.859	4.7138
546.059	4.88434
546.259	4.42588
546.459	4.16881
546.659	4.24604
546.859	5.28983
547.059	4.83355
547.258	4.94526
547.458	4.96681
547.658	4.05247
547.858	4.01475
548.058	4.67144
548.258	4.46973
548.457	3.9198
548.657	6.015
548.857	4.47217
549.057	5.07299
549.256	5.03138
549.456	4.31944
549.656	3.11271
549.855	5.7311
550.055	4.18518
550.255	5.89322
550.454	4.94567
550.654	5.02554
550.853	5.52181
551.053	5.18835
551.253	4.8831
551.452	4.82982
551.652	3.87867
551.851	3.68576
552.051	4.34191
552.25	4.21511
552.45	3.99556
552.649	4.32317
552.849	4.0571
553.048	4.38159
553.248	4.76425
553.447	3.80011
553.646	5.14958
553.846	5.85721
554.045	5.07888
554.244	3.6815
554.444	5.81275
554.643	4.02244
554.842	5.71611
555.042	6.09421
555.241	4.24749
555.44	3.73919
555.64	5.11724
555.839	6.01537
556.038	4.90675
556.237	3.88227
556.436	4.70616
556.636	4.94916
556.835	4.1657
557.034	5.72532
557.233	4.49719
557.432	3.74504
557.631	5.63969
557.83	4.55556
558.029	4.28105
558.228	4.1016
558.427	3.84487
558.626	4.94894
558.825	3.90712
559.024	4.56862
559.223	6.22976
559.422	4.60492
559.621	4.91823
559.82	2.76877
560.019	4.68004
560.218	4.54817
560.417	2.25348
560.616	4.11113
560.815	7.32092
561.014	3.31247
561.212	5.57224
561.411	4.45632
561.61	3.47813
561.809	4.17113
562.008	5.45999
562.206	4.20004
562.405	4.79627
562.604	4.3024
562.803	4.62447
563.001	4.37073
563.2	3.57118
563.399	5.04987
563.597	3.63223
563.796	4.67211
563.995	3.56154
564.193	4.98206
564.392	4.36986
564.59	6.32755
564.789	3.15284
564.988	3.98709
565.186	4.67023
565.385	4.30361
565.583	4.18711
565.782	4.30382
565.98	4.23747
566.179	4.5028
566.377	3.34233
566.575	3.84174
566.774	5.28136
566.972	5.05207
567.171	5.9894
567.369	5.37443
567.567	4.45606
567.766	4.72159
567.964	2.95603
568.162	4.81519
568.361	5.19724
568.559	4.19722
568.757	4.64897
568.956	4.49983
569.154	4.45348
569.352	5.01121
569.55	4.44852
569.748	4.43458
569.947	3.9163
570.145	3.82136
570.343	3.5618
570.541	5.25329
570.739	3.41815
570.937	4.46229
571.135	4.63639
571.333	5.71351
571.532	5.52932
571.73	4.53224
571.928	5.29668
572.126	4.58473
572.324	3.8326
572.522	5.58877
572.72	6.54602
572.918	4.49459
573.116	4.64959
573.313	4.35238
573.511	4.37583
573.709	3.82043
573.907	5.04161
574.105	4.18681
574.303	2.98183
574.501	3.23183
574.699	4.7511
574.896	4.70324
575.094	4.73718
575.292	3.40799
575.49	5.06417
575.688	4.23541
575.885	5.29824
576.083	6.11357
576.281	4.67804
576.478	3.89241
576.676	4.91278
576.874	3.15617
577.071	4.17861
577.269	6.62172
577.467	4.3988
577.664	4.56947
577.862	5.3746
578.059	3.80972
578.257	5.10731
578.455	4.19143
578.652	4.35272
578.85	2.8732
579.047	4.66193
579.245	4.27111
579.442	4.39485
579.64	4.59702
579.837	2.70687
580.034	6.81371
580.232	4.12211
580.429	3.51711
580.627	4.94804
580.824	5.61102
581.021	4.8509
581.219	4.45084
581.416	3.50441
581.613	5.73915
581.811	5.87215
582.008	3.83205
582.205	5.2235
582.402	4.73168
582.6	6.56419
582.797	4.66084
582.994	5.01446
583.191	5.47
583.388	4.54014
583.586	5.26401
583.783	5.61647
583.98	3.843
584.177	4.804
584.374	1.69756
584.571	4.52071
584.768	4.80891
584.965	4.10091
585.162	5.32619
585.359	6.33972
585.556	4.7289
585.753	5.02501
585.95	3.39638
586.147	3.99959
586.344	5.43396
586.541	4.42183
586.738	3.34593
586.935	4.86295
587.132	3.68515
587.329	5.4797
587.526	4.53954
587.722	9.52247
587.919	3.2966
588.116	5.14226
588.313	5.94721
588.51	6.80974
588.706	4.20234
588.903	5.05167
589.1	5.60296
589.297	7.41293
589.493	4.60084
589.69	5.18728
589.887	4.22086
590.083	3.55977
590.28	4.09619
590.477	5.26131
590.673	5.37184
590.87	5.72816
591.067	4.12012
591.263	5.18451
591.46	5.0611
591.656	4.4249
591.853	5.83278
592.049	3.56185
592.246	3.97418
592.442	6.03136
592.639	5.96589
592.835	3.65593
593.032	5.19561
593.228	3.16976
593.425	2.99572
593.621	3.03847
593.817	4.89558
594.014	4.04579
594.21	4.53339
594.406	5.58096
594.603	5.08742
594.799	4.06396
594.995	2.24543
595.192	5.7861
595.388	4.30791
595.584	4.18401
595.78	3.13206
595.977	6.67098
596.173	6.176
596.369	4.18455
596.565	3.39394
596.761	3.08321
596.957	5.75473
597.154	3.73257
597.35	3.85849
597.546	3.68417
597.742	5.1732
597.938	4.61933
598.134	3.77482
598.33	4.63919
598.526	5.86255
598.722	5.09263
598.918	6.42732
599.114	5.06081
599.31	3.75956
599.506	4.47157
599.702	3.9503
599.898	4.79431
600.094	5.65423
600.29	5.54381
600.485	5.76233
600.681	4.45015
600.877	6.74171
601.073	4.95882
601.269	6.82198
601.465	6.09726
601.66	3.83288
601.856	2.77543
602.052	6.5342
602.248	4.25262
602.443	2.54218
602.639	3.27491
602.835	3.80488
603.03	3.42985
603.226	5.50578
603.422	3.45026
603.617	4.03172
603.813	4.01268
604.009	3.69068
604.204	5.67099
604.4	2.94027
604.595	5.27056
604.791	3.38527
604.986	4.55459
605.182	3.58338
605.377	4.0356
605.573	3.65448
605.768	4.56706
605.964	5.07881
606.159	5.22526
606.355	5.83708
606.55	4.08003
606.746	5.91621
606.941	4.54622
607.136	7.05847
607.332	7.91708
607.527	3.32395
607.722	4.92376
607.918	4.41971
608.113	3.89326
608.308	5.41806
608.503	5.05198
608.699	4.97128
608.894	5.03145
609.089	3.76646
609.284	4.68171
609.479	3.95717
609.675	5.1822
609.87	3.98376
610.065	5.19633
610.26	5.67419
610.455	5.3898
610.65	4.55241
610.845	4.83918
611.04	5.53647
611.235	4.46579
611.43	4.2618
611.625	3.27421
611.82	6.07097
612.015	4.20986
612.21	6.54864
612.405	3.03573
612.6	7.13391
612.795	6.39388
612.99	5.73117
613.185	3.54133
613.38	4.07057
613.575	5.48555
613.77	8.3736
613.965	2.77811
614.159	3.63976
614.354	6.51362
614.549	6.25726
614.744	5.8128
614.938	3.66448
615.133	3.62399
615.328	6.9716
615.523	5.71431
615.717	8.76386
615.912	4.07329
616.107	5.27875
616.301	4.38208
616.496	4.34777
616.691	7.35313
616.885	5.90026
617.08	8.66932
617.274	6.48131
617.469	8.27612
617.664	5.73485
617.858	4.67367
618.053	5.65717
618.247	4.88779
618.442	2.42582
618.636	6.85834
618.831	4.64726
619.025	4.69345
619.219	8.76875
619.414	1.10842
619.608	4.89475
619.803	4.25326
619.997	7.94878
620.191	6.75579
620.386	5.73626
620.58	5.29724
620.774	2.93672
620.969	3.11639
621.163	5.61146
621.357	3.68097
621.551	4.83473
621.746	5.3045
621.94	4.95644
622.134	9.92468
622.328	8.03258
622.522	3.24514
622.716	6.53578
622.911	6.40266
623.105	5.96077
623.299	5.39797
623.493	9.81887
623.687	3.94358
623.881	4.57327
624.075	6.07516
624.269	6.97962
624.463	2.95929
624.657	3.13244
624.851	5.9654
625.045	6.47574
625.239	6.51309
625.433	4.58118
625.627	7.29726
625.821	4.49675
626.015	3.83984
626.209	5.18555
626.403	2.82083
626.596	5.511
626.79	6.178
626.984	3.51231
627.178	5.61078
627.372	5.83138
627.565	6.23395
627.759	3.20299
627.953	3.20402
628.147	6.1104
628.34	5.97944
628.534	7.72155
628.728	4.96809
628.921	6.50987
629.115	6.01649
629.309	6.67241
629.502	6.92858
629.696	5.76793
629.89	5.23587
630.083	5.7362
630.277	6.31422
630.47	8.01057
630.664	5.09832
630.857	3.24626
631.051	6.7714
631.244	7.64629
631.438	7.06606
631.631	4.18541
631.825	7.84438
632.018	6.63493
632.212	8.49709
632.405	7.57148
632.598	4.78672
632.792	5.50029
632.985	2.3525
633.178	5.00487
633.372	5.4733
633.565	5.29199
633.758	7.76378
633.952	4.17978
634.145	4.11987
634.338	4.7583
634.531	4.57509
634.724	4.56247
634.918	5.34921
635.111	4.94887
635.304	4.7251
635.497	9.14818
635.69	5.90926
635.883	7.50661
636.077	4.24234
636.27	6.51837
636.463	5.99616
636.656	6.53342
636.849	4.90497
637.042	6.41463
637.235	8.80352
637.428	7.05526
637.621	7.65814
637.814	8.17056
638.007	8.69843
638.2	8.77311
638.393	9.05463
638.586	4.55421
638.778	5.24901
638.971	6.39399
639.164	9.08079
639.357	7.17486
639.55	8.26788
639.743	7.37491
639.935	7.54736
640.128	9.75911
640.321	7.45549
640.514	6.49013
640.707	11.03228
640.899	7.79185
641.092	3.08129
641.285	19.78915
641.477	2.52119
641.67	10.55435
641.863	8.88901
642.055	6.59427
642.248	6.5258
642.441	5.5028
642.633	7.54133
642.826	8.65441
643.018	8.91674
643.211	10.0984
643.403	9.55579
643.596	10.55122
643.788	10.07602
643.981	6.20699
644.173	7.94354
644.366	6.37506
644.558	3.27958
644.751	8.88119
644.943	4.26877
645.135	9.88116
645.328	10.70261
645.52	8.23786
645.712	9.08132
645.905	13.31789
646.097	4.95402
646.289	8.002
646.482	11.04336
646.674	5.79765
646.866	8.8591
647.058	7.69038
647.251	4.95789
647.443	5.94802
647.635	6.85479
647.827	4.73071
648.019	5.37731
648.211	6.73899
648.404	7.39849
648.596	10.27383
648.788	7.88649
648.98	7.08288
649.172	8.16874
649.364	8.22315
649.556	3.66233
649.748	11.94398
649.94	5.70697
650.132	8.19498
650.324	4.94382
650.516	5.72016
650.708	9.63146
650.9	4.06406
651.092	6.07035
651.284	4.36948
651.476	4.95394
651.667	8.13927
651.859	9.76749
652.051	6.66061
652.243	7.36033
652.435	5.74393
652.627	8.2606
652.818	8.31699
653.01	3.81286
653.202	5.46207
653.394	6.40297
653.585	8.13474
653.777	16.74616
653.969	9.87688
654.16	9.70246
654.352	5.20189
654.544	6.52734
654.735	10.36597
654.927	7.49841
655.118	10.97545
655.31	9.21599
655.502	9.69133
655.693	6.11485
655.885	8.34646
656.076	10.17772
656.268	7.63328
656.459	10.60106
656.651	10.25217
656.842	6.61202
657.034	5.84269
657.225	9.21506
657.416	10.16411
657.608	10.23676
657.799	7.11633
657.99	9.57825
658.182	5.64753
658.373	5.75607
658.564	8.61751
658.756	6.96862
658.947	6.37088
659.138	5.07235
659.33	5.99125
659.521	5.38292
659.712	6.64064
659.903	6.49456
660.094	5.47137
660.286	4.14576
660.477	10.64589
660.668	8.3584
660.859	7.11805
661.05	3.7495
661.241	8.8995
661.432	8.44285
661.623	6.86755
661.814	6.58888
662.006	3.75237
662.197	7.92685
662.388	10.13627
662.579	8.19029
662.77	13.63593
662.96	14.68579
663.151	9.974
663.342	4.36245
663.533	8.75857
663.724	7.85118
663.915	12.19856
664.106	7.84837
664.297	12.34416
664.488	9.75596
664.678	7.02348
664.869	9.00386
665.06	10.56223
665.251	8.64844
665.442	8.85473
665.632	5.75137
665.823	12.63486
666.014	1.3012
666.204	9.8662
666.395	11.06711
666.586	15.49749
666.776	9.72247
666.967	12.01804
667.158	8.23646
667.348	12.2628
667.539	5.68985
667.729	10.49893
667.92	6.40072
668.111	10.81304
668.301	9.42204
668.492	7.73706
668.682	8.60628
668.873	7.35771
669.063	5.53395
669.253	8.24901
669.444	10.45208
669.634	7.35897
669.825	13.14749
670.015	10.70904
670.206	6.26541
670.396	13.64344
670.586	8.17139
670.777	9.32521
670.967	3.47726
671.157	7.74356
671.347	7.32708
671.538	12.80032
671.728	10.5006
671.918	13.75787
672.108	10.40664
672.299	8.96112
672.489	9.83014
672.679	7.81072
672.869	9.99668
673.059	13.06813
673.249	10.12244
673.44	6.1524
673.63	8.11126
673.82	11.78058
674.01	6.92535
674.2	10.23564
674.39	17.07367
674.58	10.87106
674.77	9.39892
674.96	8.6919
675.15	20.01996
675.34	12.39816
675.53	8.88047
675.72	7.9547
675.91	5.73023
676.099	13.82338
676.289	16.26551
676.479	11.72158
676.669	8.25143
676.859	10.73986
677.049	6.64078
677.238	9.13196
677.428	14.95608
677.618	10.41012
677.808	12.24425
677.997	11.5534
678.187	6.36235
678.377	8.68303
678.567	7.64126
678.756	7.74482
678.946	8.17371
679.136	5.54239
679.325	6.8233
679.515	6.50799
679.704	5.46027
679.894	9.98686
680.084	9.30018
680.273	11.41766
680.463	6.31838
680.652	6.18569
680.842	8.06583
681.031	11.14043
681.221	6.42969
681.41	9.46456
681.6	8.12329
681.789	10.55629
681.978	12.20027
682.168	9.81689
682.357	9.5808
682.547	10.52838
682.736	9.89659
682.925	12.57636
683.115	11.94201
683.304	12.17186
683.493	10.17077
683.682	11.02832
683.872	11.19762
684.061	13.20242
684.25	11.97752
684.439	16.1096
684.629	11.57245
684.818	19.599
685.007	9.64609
685.196	8.77201
685.385	15.16432
685.574	11.55891
685.763	10.94653
685.952	10.98424
686.142	6.58879
686.331	14.20793
686.52	4.40175
686.709	14.75063
686.898	15.30732
687.087	11.71827
687.276	15.04395
687.465	13.70157
687.654	9.06003
687.842	15.3165
688.031	6.48631
688.22	14.54397
688.409	10.86832
688.598	10.83801
688.787	18.61488
688.976	10.95863
689.165	16.72657
689.353	9.52495
689.542	12.47722
689.731	13.46676
689.92	17.38713
690.108	13.83083
690.297	9.46228
690.486	11.16889
690.675	12.78336
690.863	16.89766
691.052	15.97776
691.241	12.41313
691.429	12.21897
691.618	16.27837
691.806	7.24599
691.995	10.56579
692.184	10.51277
692.372	9.8745
692.561	12.00354
692.749	10.97755
692.938	20.78809
693.126	13.24694
693.315	11.05952
693.503	13.54882
693.692	14.09572
693.88	15.88649
694.068	20.18867
694.257	10.6065
694.445	12.83209
694.634	5.12617
694.822	16.35346
695.01	16.62375
695.199	17.14296
695.387	18.42846
695.575	16.69277
695.763	11.63247
695.952	10.48106
696.14	6.60674
696.328	10.23692
696.516	12.71983
696.705	12.14161
696.893	12.75095
697.081	5.28088
697.269	14.31754
697.457	8.35065
697.645	7.33578
697.833	14.17657
698.021	8.54409
698.21	8.77271
698.398	10.10411
698.586	6.93054
698.774	6.87223
698.962	10.01284
699.15	7.34227
699.338	5.69645
699.526	11.26314
699.714	8.69136
699.901	8.16072
700.089	13.55115
700.277	8.02198
700.465	9.85035
700.653	13.40326
700.841	12.4157
701.029	8.15082
701.217	15.48886
701.404	12.20748
701.592	16.03017
701.78	19.98303
701.968	9.92072
702.155	10.73911
702.343	5.7781
702.531	17.78096
702.718	13.71272
702.906	12.6153
703.094	9.86367
703.281	17.5218
703.469	11.84241
703.657	17.90467
703.844	25.68701
704.032	20.06782
704.219	10.41045
704.407	14.41029
704.595	17.71492
704.782	12.50049
704.97	10.71007
705.157	10.71695
705.345	19.45838
705.532	24.59579
705.719	15.55788
705.907	19.21072
706.094	13.95943
706.282	21.01426
706.469	12.14415
706.656	13.86003
706.844	12.26384
707.031	18.25029
707.218	14.50699
707.406	20.7826
707.593	17.26568
707.78	16.32239
707.968	12.86191
708.155	10.20675
708.342	16.82814
708.529	16.87375
708.716	15.04541
708.904	21.20194
709.091	17.3082
709.278	9.50105
709.465	21.29594
709.652	22.03719
709.839	19.65552
710.026	16.10234
710.213	7.49414
710.4	14.35391
710.587	19.00291
710.774	19.21151
710.961	19.4491
711.148	13.83276
711.335	19.67377
711.522	12.71286
711.709	16.41885
711.896	23.69267
712.083	19.14412
712.27	10.50915
712.457	14.80273
712.644	9.55276
712.831	24.77952
713.017	15.25907
713.204	19.53979
713.391	12.51592
713.578	20.59696
713.765	22.02224
713.951	17.7719
714.138	29.75
714.325	18.16801
714.512	15.83434
714.698	12.24071
714.885	22.61819
715.072	17.40909
715.258	16.36951
715.445	13.58451
715.631	22.13884
715.818	5.25558
716.005	12.74624
716.191	18.25863
716.378	14.17302
716.564	19.58202
716.751	12.24534
716.937	13.9498
717.124	21.34663
717.31	13.09642
717.497	23.41902
717.683	14.0722
717.869	27.0352
718.056	14.87706
718.242	19.48623
718.429	16.88649
718.615	11.22895
718.801	17.96933
718.988	21.44534
719.174	19.00738
719.36	17.3481
719.547	23.4731
719.733	19.43988
719.919	19.64132
720.105	21.54777
720.291	16.95991
720.478	18.60833
720.664	18.08935
720.85	14.85742
721.036	33.06116
721.222	27.37768
721.408	16.69463
721.595	28.45354
721.781	25.52139
721.967	24.49594
722.153	26.53176
722.339	21.66524
722.525	21.26218
722.711	13.49232
722.897	11.65954
723.083	16.46027
723.269	24.08031
723.455	32.73294
723.641	34.59077
723.827	19.90168
724.012	20.9644
724.198	17.37649
724.384	25.04279
724.57	21.24432
724.756	10.34917
724.942	8.56832
725.127	25.90969
725.313	27.41683
725.499	26.63844
725.685	29.50384
725.87	21.3904
726.056	13.65888
726.242	27.86547
726.428	11.26383
726.613	24.4335
726.799	18.55255
726.985	12.8242
727.17	10.69418
727.356	29.43397
727.541	15.2348
727.727	18.79817
727.913	24.16652
728.098	17.02028
728.284	24.59464
728.469	13.0098
728.655	14.64371
728.84	23.58907
729.026	24.42921
729.211	24.94003
729.397	22.74907
729.582	22.53456
729.767	19.3666
729.953	21.2926
730.138	26.03101
730.323	8.09699
730.509	13.10724
730.694	27.29215
730.879	23.21464
731.065	20.54643
731.25	33.26347
731.435	23.86973
731.621	11.4603
731.806	16.63855
731.991	22.21328
732.176	12.50046
732.361	26.50716
732.547	22.61714
732.732	9.4742
732.917	33.87536
733.102	13.24277
733.287	15.93171
733.472	20.12306
733.657	21.19307
733.842	10.92902
734.027	17.60835
734.212	18.20079
734.397	15.82062
734.582	20.08977
734.767	23.79651
734.952	27.84819
735.137	5.71539
735.322	29.30175
735.507	20.34585
735.692	22.00727
735.877	34.28348
736.062	31.98028
736.247	21.37265
736.431	19.67559
736.616	30.45827
736.801	23.54711
736.986	22.47566
737.171	17.81019
737.355	11.74483
737.54	29.4367
737.725	20.88871
737.909	39.43837
738.094	17.37644
738.279	25.40077
738.463	19.77154
738.648	26.42126
738.833	22.95338
739.017	33.23549
739.202	19.68727
739.386	20.34108
739.571	14.84226
739.756	27.03941
739.94	21.0896
740.125	26.42756
740.309	16.9363
740.494	25.85514
740.678	21.9108
740.863	24.95924
741.047	23.08219
741.231	29.80272
741.416	17.77094
741.6	30.81513
741.785	16.8705
741.969	26.48476
742.153	30.73111
742.338	6.90606
742.522	22.31666
742.706	28.63395
742.89	13.41632
743.075	24.7087
743.259	32.52027
743.443	28.40227
743.627	31.25769
743.812	38.91313
743.996	6.20247
744.18	22.48158
744.364	18.13338
744.548	41.25221
744.732	21.26402
744.916	27.23707
745.1	27.20272
745.285	20.00481
745.469	27.72768
745.653	38.43746
745.837	13.80431
746.021	39.0975
746.205	32.28804
746.389	25.67666
746.573	21.6204
746.757	35.68841
746.94	19.3876
747.124	31.60704
747.308	14.2012
747.492	31.38717
747.676	20.50637
747.86	41.74728
748.044	22.58706
748.227	11.98102
748.411	51.86546
748.595	27.08362
748.779	17.10575
748.963	28.73257
749.146	25.41791
749.33	18.68871
749.514	16.04122
749.697	31.93431
749.881	18.95986
750.065	14.78107
750.248	23.76238
750.432	43.19956
750.616	25.61797
750.799	12.67708
750.983	40.73819
751.166	47.69575
751.35	11.00783
751.533	29.37332
751.717	33.30662
751.9	36.21138
752.084	19.35942
752.267	15.54538
752.451	16.52307
752.634	24.87541
752.818	27.84955
753.001	29.93831
753.184	32.8858
753.368	26.15929
753.551	2.33118
753.734	17.77092
753.918	42.19846
754.101	20.4169
754.284	29.57584
754.467	21.51092
754.651	19.36655
754.834	17.45551
755.017	35.1352
755.2	32.92691
755.384	14.54693
755.567	31.9977
755.75	35.49064
755.933	20.99488
756.116	27.02213
756.299	18.92404
756.482	18.30753
756.665	30.37328
756.848	28.94879
757.032	28.55056
757.215	13.55615
757.398	19.29018
757.581	19.59549
757.764	47.82463
757.947	25.63263
758.129	35.84516
758.312	2.0166
758.495	24.16542
758.678	21.99457
758.861	24.73182
759.044	42.86104
759.227	19.00622
759.41	19.13476
759.592	28.50325
759.775	24.33511
759.958	34.4303
760.141	13.16204
760.324	41.2825
760.506	38.65506
760.689	29.71944
760.872	45.61422
761.054	28.64667
761.237	21.18577
761.42	30.0178
761.602	32.22266
761.785	29.14201
761.968	34.61034
762.15	40.41106
762.333	25.07204
762.515	28.36749
762.698	20.39494
762.88	30.45344
763.063	26.81628
763.245	29.923
763.428	17.92544
763.61	16.44834
763.793	15.07911
763.975	24.73155
764.158	19.56629
764.34	18.98124
764.522	15.76822
764.705	20.99657
764.887	33.91862
765.069	13.03358
765.252	28.37174
765.434	30.67198
765.616	24.68545
765.799	18.6301
765.981	29.70118
766.163	16.30925
766.345	30.61818
766.528	19.57648
766.71	5.11337
766.892	25.48237
767.074	34.22722
767.256	23.74538
767.438	42.71309
767.62	26.8029
767.802	46.91526
767.985	30.6682
768.167	41.73166
768.349	19.81825
768.531	32.07164
768.713	29.48085
768.895	36.42214
769.077	30.48805
769.259	51.56938
769.441	78.43539
769.623	36.74379
769.804	43.81702
769.986	42.84376
770.168	55.41652
770.35	65.28484
770.532	46.62772
770.714	47.76629
770.896	54.91428
771.077	18.57683
771.259	56.26064
771.441	45.21405
771.623	57.98486
771.804	77.7895
771.986	17.91811
772.168	38.46869
772.35	60.77411
772.531	79.41936
772.713	46.59616
772.894	57.98794
773.076	44.54347
773.258	31.75776
773.439	62.19856
773.621	64.59854
773.802	24.57948
773.984	41.09558
774.166	45.419
774.347	70.5415
774.529	53.29367
774.71	15.14738
774.891	41.66489
775.073	39.51531
775.254	67.27041
775.436	34.21092
775.617	70.73047
775.799	36.75116
775.98	74.40238
776.161	75.09501
776.343	67.19749
776.524	46.4819
776.705	40.20314
776.886	21.02387
777.068	49.18777
777.249	83.7446
777.43	77.75967
777.611	28.24693
777.793	44.56089
777.974	71.58385
778.155	41.20143
778.336	30.84824
778.517	73.5707
778.698	35.77873
778.879	15.0399
779.061	2.58892
779.242	53.86761
779.423	49.29383
779.604	35.27337
779.785	40.15935
779.966	49.11832
780.147	59.18424
780.328	60.98794
780.509	88.89309
780.69	55.83907
780.871	36.86281
781.051	21.7135
781.232	50.07847
781.413	48.35386
781.594	35.7724
781.775	37.8101
781.956	33.8227
782.137	16.61549
782.317	32.29185
782.498	50.82156
782.679	50.25109
782.86	47.00118
783.04	30.94621
783.221	50.43406
783.402	78.46464
783.583	43.69411
783.763	56.53341
783.944	41.37086
784.124	21.85973
784.305	76.3237
784.486	51.85196
784.666	42.42918
784.847	18.5755
785.027	91.86868
785.208	32.54682
785.388	33.57537
785.569	35.1114
785.749	38.05935
785.93	37.16358
786.11	20.42635
786.291	47.12235
786.471	45.26664
786.652	57.92892
786.832	42.15969
787.012	55.39826
787.193	24.42139
787.373	43.0897
787.553	37.72551
787.734	44.77926
787.914	35.29596
788.094	53.06627
788.275	48.39315
788.455	36.91502
788.635	24.08529
788.815	46.87663
788.995	28.4168
789.176	21.69731
789.356	30.11302
789.536	37.77034
789.716	49.91426
789.896	31.02397
790.076	37.30527
790.256	47.54093
790.436	11.05413
790.616	27.77087
790.796	47.51288
790.976	38.62087
791.156	35.78996
791.336	52.28871
791.516	45.93767
791.696	36.73477
791.876	21.16675
792.056	46.88432
792.236	57.98124
792.416	55.80981
792.596	53.85333
792.776	50.80571
792.956	52.79067
793.135	69.58659
793.315	25.33776
793.495	65.17477
793.675	53.62213
793.854	61.55747
794.034	55.49594
794.214	23.12346
794.394	58.35996
794.573	59.41757
794.753	42.60148
794.933	30.15764
795.112	43.07916
795.292	57.23808
795.472	72.74472
795.651	29.66084
795.831	44.48095
796.01	36.41102
796.19	36.30389
796.369	38.32966
796.549	51.55776
796.728	40.81849
796.908	27.51443
797.087	26.80536
797.267	43.10563
797.446	24.00394
797.626	46.40124
797.805	50.00153
797.984	31.59742
798.164	50.39932
798.343	29.54521
798.522	46.66548
798.702	45.14071
798.881	25.11294
799.06	37.92136
799.239	13.08984
799.419	26.07853
799.598	66.54785
799.777	54.54065
799.956	60.60852
800.136	35.15997
800.315	33.40017
800.494	46.5116
800.673	56.59835
800.852	52.95867
801.031	62.26009
801.21	53.00504
801.389	32.93575
801.568	48.8443
801.747	71.27704
801.926	42.64301
802.105	66.0599
802.284	37.47034
802.463	67.19183
802.642	48.99013
802.821	50.403
803	66.05096
803.179	58.0124
803.358	68.13812
803.537	35.60358
803.716	55.36248
803.895	28.73834
804.073	42.50706
804.252	36.37134
804.431	51.84566
804.61	43.4161
804.789	66.91866
804.967	33.91616
805.146	36.97325
805.325	82.23062
805.503	51.26291
805.682	25.71727
805.861	86.10866
806.039	64.02259
806.218	27.60215
806.397	46.52
806.575	42.8588
806.754	50.98907
806.932	32.93997
807.111	69.32798
807.289	61.03706
807.468	47.70471
807.646	57.83788
807.825	49.68165
808.003	47.6398
808.182	59.53949
808.36	48.64941
808.539	31.08912
808.717	73.32599
808.895	30.72854
809.074	52.42433
809.252	39.34139
809.43	63.67102
809.609	72.14514
809.787	80.46983
809.965	44.42902
810.144	51.08376
810.322	42.9027
810.5	57.99173
810.678	41.62026
810.856	93.56106
811.035	69.04444
811.213	63.59984
811.391	63.69897
811.569	51.31334
811.747	106.17296
811.925	67.45141
812.103	41.29394
812.281	41.14288
812.459	89.4647
812.637	86.52554
812.816	72.97221
812.994	89.56901
813.171	68.61361
813.349	65.43234
813.527	76.7874
813.705	71.48937
813.883	90.60175
814.061	68.03101
814.239	85.68318
814.417	96.48405
814.595	65.95484
814.773	59.05333
814.95	54.40241
815.128	63.91023
815.306	50.83894
815.484	52.87071
815.662	38.92413
815.839	29.86422
816.017	44.9435
816.195	75.78007
816.372	49.56921
816.55	68.49783
816.728	85.6809
816.905	55.22619
817.083	84.11842
817.261	57.89565
817.438	105.94915
817.616	92.71645
817.793	42.33323
817.971	71.39204
818.148	61.36146
818.326	78.23793
818.503	59.8471
818.681	75.64366
818.858	43.30859
819.036	53.46712
819.213	56.2872
819.391	39.83994
819.568	35.25497
819.745	29.7601
819.923	58.43941
820.1	38.11643
820.277	35.23837
820.455	39.62384
820.632	44.19863
820.809	45.76066
820.986	26.84946
821.164	19.16165
821.341	17.57388
821.518	26.6779
821.695	19.06463
821.872	16.85076
822.05	14.70445
822.227	10.5728
822.404	10.81257
822.581	13.07289
822.758	11.2878
822.935	11.18876
823.112	13.44871
823.289	10.53076
823.466	13.63589
823.643	12.02217
823.82	15.34545
823.997	13.51196
824.174	17.03284
824.351	22.78436
824.528	21.74229
824.705	19.85996
824.882	22.92321
825.059	29.93035
825.236	19.76625
825.412	20.44995
825.589	26.98106
825.766	41.89247
825.943	23.71755
826.12	27.83333
826.296	16.4745
826.473	26.28588
826.65	25.86686
826.827	32.67577
827.003	19.42345
827.18	22.60864
827.357	25.80476
827.533	22.8767
827.71	10.06993
827.887	17.75847
828.063	22.38726
828.24	19.3198
828.416	27.4397
828.593	20.58133
828.769	32.7294
828.946	36.62759
829.122	36.55368
829.299	37.77879
829.475	16.40756
829.652	35.60566
829.828	61.84828
830.005	39.13963
830.181	50.0455
830.357	33.41261
830.534	59.47457
830.71	43.22555
830.886	59.42278
831.063	53.62897
831.239	66.70094
831.415	30.20011
831.592	75.94285
831.768	42.86602
831.944	36.33535
832.12	77.17735
832.296	64.38729
832.473	57.52135
832.649	37.81638
832.825	54.74667
833.001	30.37595
833.177	48.07022
833.353	42.17443
833.529	21.85001
833.705	33.46136
833.881	21.71135
834.058	20.89468
834.234	23.59636
834.41	24.57783
834.586	17.98799
834.761	22.37129
834.937	26.82281
835.113	27.044
835.289	24.78492
835.465	30.97373
835.641	25.96093
835.817	29.46536
835.993	56.49715
836.169	25.77817
836.344	41.14997
836.52	51.09159
836.696	50.7053
836.872	28.79801
837.048	110.8323
837.223	41.69961
837.399	92.41169
837.575	74.74989
837.75	65.74241
837.926	100.68892
838.102	155.48285
838.277	104.94745
838.453	161.0093
838.628	155.77291
838.804	45.58808
838.98	149.2759
839.155	73.03936
839.331	101.12163
839.506	68.16901
839.682	70.50561
839.857	72.85704
840.033	91.45476
840.208	43.51776
840.384	22.65418
840.559	49.31615
840.734	70.34871
840.91	98.76678
841.085	66.07107
841.26	61.72092
841.436	54.8062
841.611	46.29895
841.786	84.80229
841.962	120.40029
842.137	83.129
842.312	37.73584
842.487	61.65041
842.663	67.28333
842.838	82.24935
843.013	251.52444
843.188	120.48206
843.363	109.33367
843.538	223.66843
843.714	239.89315
843.889	225.27534
844.064	196.81067
844.239	154.47759
844.414	252.77544
844.589	159.67202
844.764	278.6176
844.939	282.04599
845.114	250.22225
845.289	326.1845
845.464	363.70706
845.639	255.51601
845.814	162.25624
845.989	198.37914
846.163	195.77379
846.338	246.86155
846.513	322.61126
846.688	222.90971
846.863	218.43687
847.038	158.21427
847.212	201.78647
847.387	230.98549
847.562	212.17107
847.737	303.10067
847.911	126.53842
848.086	151.95791
848.261	306.62228
848.435	174.52493
848.61	277.95224
848.785	159.42043
848.959	315.27405
849.134	289.99992
849.308	601.05791
849.483	234.07678
849.658	361.25818
849.832	197.34579
850.007	117.18327
850.181	483.33191
850.356	233.89273
850.53	421.97716
850.705	133.52524
850.879	115.64965
851.053	180.98552
851.228	222.69406
851.402	321.08703
851.577	305.01059
851.751	403.45973
851.925	196.91077
852.099	74.44085
852.274	172.20641
852.448	214.57194
852.622	287.44507
852.797	225.68489
852.971	237.20403
853.145	263.29095
853.319	465.8339
853.493	434.87862
853.668	231.32167
853.842	537.49127
854.016	377.58775
854.19	463.4845
854.364	218.03545
854.538	315.89713
854.712	314.40131
854.886	214.3801
855.06	241.88464
855.234	66.31784
855.408	367.14392
855.582	332.25436
855.756	528.49067
855.93	361.27642
856.104	341.73206
856.278	337.79931
856.452	214.7438
856.626	250.27909
856.8	472.14265
856.973	368.03439
857.147	356.34429
857.321	326.22443
857.495	353.14139
857.669	268.50046
857.842	242.90321
858.016	400.79816
858.19	168.3309
858.364	512.90826
858.537	243.28693
858.711	360.69249
858.885	240.46113
859.058	177.65894
859.232	142.35731
859.405	124.67454
859.579	328.17939
859.753	393.21062
859.926	189.88791
860.1	145.7952
860.273	282.36567
860.447	391.93945
860.62	234.07209
860.794	500.94333
860.967	253.24472
861.141	302.51941
861.314	481.44358
861.487	291.646
861.661	373.29762
861.834	544.67315
862.008	337.7266
862.181	320.69168
862.354	258.84538
862.528	398.6891
862.701	244.33819
862.874	128.97923
863.047	207.83029
863.221	192.26202
863.394	96.64828
863.567	298.24018
863.74	84.94362
863.913	342.28601
864.087	317.54113
864.26	371.36112
864.433	255.05418
864.606	473.31036
864.779	322.80188
864.952	104.23377
865.125	267.62673
865.298	298.40702
865.471	299.39899
865.644	453.31694
865.817	338.51152
865.99	381.01359
866.163	413.59805
866.336	182.18996
866.509	291.51006
866.682	267.46322
866.855	444.13341
867.028	134.65715
867.2	269.03152
867.373	71.03082
867.546	234.17143
867.719	504.83879
867.892	335.18111
868.064	184.59946
868.237	242.6323
868.41	252.49062
868.583	177.03441
868.755	174.54571
868.928	221.00252
869.101	530.53154
869.273	403.98748
869.446	275.47955
869.619	416.04768
869.791	339.38326
869.964	404.93714
870.136	433.88081
870.309	207.82828
870.481	269.80885
870.654	134.00296
870.826	251.91888
870.999	197.11251
871.171	372.91932
871.344	168.99399
871.516	204.03387
871.689	161.6239
871.861	267.78238
872.033	165.75039
872.206	228.23945
872.378	269.13998
872.55	257.86259
872.723	143.04571
872.895	222.59864
873.067	337.5519
873.24	281.72615
873.412	186.73522
873.584	223.61879
873.756	214.39338
873.928	256.39171
874.101	233.8586
874.273	278.03925
874.445	97.62231
874.617	125.5795
874.789	194.05665
874.961	196.66736
875.133	281.90459
875.305	240.37946
875.477	147.96959
875.649	102.38677
875.821	166.78504
875.993	340.32038
876.165	212.14894
876.337	251.50952
876.509	222.09531
876.681	251.52345
876.853	232.57264
877.025	258.94424
877.197	163.51891
877.369	143.15198
877.541	275.93511
877.712	44.35874
877.884	130.0556
878.056	240.82085
878.228	134.63377
878.4	258.80288
878.571	124.24818
878.743	90.38112
878.915	185.22302
879.086	98.77765
879.258	129.56189
879.43	116.83162
879.601	101.03689
879.773	98.63984
879.945	20.85686
880.116	34.70422
880.288	21.21925
880.459	24.29751
880.631	17.38779
880.802	22.11485
880.974	20.36693
881.145	12.08577
881.317	19.8511
881.488	13.59528
881.66	15.02237
881.831	13.66014
882.002	19.83781
882.174	13.89106
882.345	17.92342
882.517	8.06092
882.688	23.07213
882.859	16.7183
883.03	31.69292
883.202	28.71533
883.373	23.51259
883.544	22.54431
883.715	44.40281
883.887	37.14033
884.058	28.91742
884.229	44.71117
884.4	46.75137
884.571	54.69701
884.742	43.45069
884.914	46.07351
885.085	79.17147
885.256	113.54724
885.427	91.84668
885.598	117.8459
885.769	115.77885
885.94	108.64979
886.111	60.4239
886.282	129.16035
886.453	108.28211
886.624	80.88276
886.795	153.83735
886.966	113.47633
887.136	152.50931
887.307	124.54545
887.478	206.1713
887.649	186.54627
887.82	194.20923
887.991	144.34082
888.161	238.99559
888.332	209.74847
888.503	114.51061
888.674	298.12856
888.844	354.24143
889.015	320.48049
889.186	143.63982
889.356	320.03852
889.527	148.69392
889.698	506.75676
889.868	178.70258
890.039	312.36618
890.209	197.35099
890.38	275.87833
890.551	261.97028
890.721	372.54554
890.892	325.62423
891.062	314.42606
891.233	352.66944
891.403	285.07097
891.574	181.65607
891.744	197.40291
891.914	223.18738
892.085	359.16733
892.255	68.41739
892.425	318.83566
892.596	211.54954
892.766	275.53037
892.936	395.75189
893.107	249.2572
893.277	124.68093
893.447	111.9792
893.618	63.57589
893.788	155.99942
893.958	92.21557
894.128	69.31469
894.298	83.45482
894.468	106.85298
894.639	48.77264
894.809	25.79714
894.979	52.7757
895.149	61.02712
895.319	46.83112
895.489	64.81869
895.659	99.12476
895.829	59.08067
895.999	61.10377
896.169	57.52269
896.339	68.35759
896.509	132.62621
896.679	153.06048
896.849	169.26599
897.019	241.18382
897.189	223.86665
897.358	172.10883
897.528	279.80357
897.698	130.46352
897.868	281.83131
898.038	546.20831
898.208	474.40562
898.377	124.68323
898.547	824.12988
898.717	824.93437
898.886	325.76724
899.056	575.02046
899.226	907.96761
899.395	681.03782
899.565	701.37307
899.735	445.55825
899.904	618.48627
900.074	859.52786
900.244	256.42378
900.413	1749.94897
900.583	278.12694
900.752	3231.39508
900.922	585.988
901.091	93.90842
901.261	679.51995
901.43	552.41827
901.599	698.40033
901.769	1433.05068
901.938	686.72074
902.108	664.82857
902.277	726.86118
902.446	269.98619
902.616	282.12482
902.785	434.46865
902.954	559.54302
903.124	288.17092
903.293	206.64302
903.462	92.26997
903.631	150.61289
903.801	101.5348
903.97	41.58572
904.139	81.98814
904.308	67.23485
904.477	53.47178
904.646	27.31582
904.816	44.33008
904.985	68.21272
905.154	102.63056
