Data from WindowProjectSample_Transmission__8__00008.txt Node

Date: Sat May 03 14:59:52 EDT 2025
User: jessi
Spectrometer: SR400872
Trigger mode: 0
Integration Time (sec): 5.000010E-1
Scans to average: 6
Electric dark correction enabled: true
Nonlinearity correction enabled: true
Boxcar width: 0
XAxis mode: Wavelengths
Number of Pixels in Spectrum: 3648
>>>>>Begin Spectral Data<<<<<
184.909	18191.8958
185.132	2718.2418
185.355	23442.60841
185.578	-7752.42147
185.801	370.11234
186.024	-1488.43948
186.247	914.0277
186.47	1744.95693
186.693	-285.52314
186.916	-1158.80541
187.139	-2535.23523
187.362	1793.42152
187.585	2737.66971
187.808	-3709.77864
188.031	-1675.40403
188.254	-1274.02088
188.476	-842.47209
188.699	2586.17007
188.922	-1106.04095
189.145	-9988.55959
189.368	-407.90592
189.591	-1286.59653
189.813	-1718.08821
190.036	1241.62437
190.259	1595.17791
190.482	560.33611
190.705	10422.84147
190.927	-1040.19927
191.15	3432.12937
191.373	2261.74776
191.595	-2470.66948
191.818	2354.75654
192.041	-270.85174
192.263	2597.90559
192.486	2096.87614
192.709	-5318.247
192.931	2929.33892
193.154	-6201.4381
193.377	182925.45997
193.599	1476.36867
193.822	1710.2986
194.044	-2241.521
194.267	436.81643
194.489	-302.09876
194.712	1420.05972
194.934	3350.00268
195.157	-13666.19507
195.379	787.8155
195.602	2180.55833
195.824	2044.02291
196.047	2650.29948
196.269	2909.22136
196.492	3243.71439
196.714	2797.21829
196.936	1241.09697
197.159	1357.23418
197.381	-1963.34422
197.604	-698.73372
197.826	5883.04015
198.048	2951.85767
198.271	3773.18678
198.493	2043.79201
198.715	-5744.2556
198.938	-519.01908
199.16	1811.05886
199.382	1443.66544
199.604	-697.39694
199.827	8628.87984
200.049	1000.60755
200.271	-2965.97156
200.493	-51220.89689
200.715	2291.03467
200.938	6508.22791
201.16	-7284.66786
201.382	-2999.35878
201.604	-1888.11055
201.826	6211.61518
202.048	965.43452
202.27	-15498.8353
202.492	4578.30458
202.715	-1052.8306
202.937	4812.05479
203.159	-2152.45423
203.381	919.35954
203.603	-3595.50692
203.825	-2572.09386
204.047	3094.29457
204.269	-1890.19783
204.491	2124.34522
204.713	1900.61854
204.935	15796.48229
205.156	1433.5564
205.378	-9034.90945
205.6	-3927.0246
205.822	9117.53512
206.044	-597.98513
206.266	4173.48992
206.488	967.62499
206.71	29777.71784
206.932	2218.13062
207.153	-4793.19836
207.375	-1886.05365
207.597	8314.16273
207.819	4215.58999
208.041	2346.08886
208.262	-2441.54609
208.484	-1202.17724
208.706	-2911.22832
208.927	25344.24437
209.149	845.3066
209.371	-6065.88233
209.593	1309.29693
209.814	4578.67358
210.036	-2761.24957
210.258	-4723.28604
210.479	-1420.11873
210.701	981.07166
210.922	6569.03535
211.144	-1357.14892
211.366	-5940.15262
211.587	-500.54686
211.809	10005.31459
212.03	-1371.67518
212.252	-1886.81629
212.473	773.24139
212.695	-2485.69537
212.916	3072.26297
213.138	3362.10438
213.359	-1908.53359
213.581	6410.17382
213.802	-1552.20234
214.024	16137.39658
214.245	-2939.432
214.466	-356.08136
214.688	1593.06394
214.909	939.47006
215.131	-103396.06696
215.352	1683.80436
215.573	2468.82075
215.795	2977.70462
216.016	3887.59724
216.237	-577.08174
216.459	6715.74807
216.68	105276.27579
216.901	-81792.0885
217.122	2231.91162
217.344	6277.02517
217.565	-58649.6506
217.786	1490.83285
218.007	1765.65627
218.228	-1247.58695
218.45	-1254.34799
218.671	-1049.312
218.892	1132.70903
219.113	-17324.13311
219.334	-378.42864
219.555	-5385.32604
219.776	1622.2612
219.997	3418.37762
220.219	1056.0798
220.44	2398.13756
220.661	-3270.57658
220.882	3458.11947
221.103	-1232.40114
221.324	905.28815
221.545	2160.78296
221.766	-5760.38547
221.987	3894.23405
222.208	-1768.34331
222.429	3500.33914
222.65	-92.6232
222.87	-466.30637
223.091	8889.50068
223.312	2665.53465
223.533	6458.77898
223.754	1789.20133
223.975	1475.47947
224.196	-11736.51021
224.417	1031.14705
224.637	831.75403
224.858	-891.23904
225.079	7182.26614
225.3	644.40713
225.521	2056.85261
225.741	1455.86005
225.962	713.55794
226.183	321.21114
226.404	647.79855
226.624	590.70852
226.845	367.25846
227.066	417.98082
227.286	183.98076
227.507	91.08089
227.728	73.61775
227.948	121.87147
228.169	38.28183
228.389	45.31913
228.61	22.25433
228.831	35.23544
229.051	2.80696
229.272	22.13575
229.492	29.97683
229.713	7.56214
229.933	23.32927
230.154	20.05455
230.374	31.18547
230.595	24.46643
230.815	16.14181
231.036	23.27832
231.256	-7.33258
231.477	44.34063
231.697	22.88614
231.917	24.46828
232.138	34.85813
232.358	75.4957
232.579	66.62307
232.799	11.74095
233.019	66.00797
233.24	79.16491
233.46	24.03241
233.68	37.51218
233.901	31.8786
234.121	19.07426
234.341	10.46011
234.561	-3.36863
234.782	15.53477
235.002	47.37939
235.222	0.39909
235.442	40.24519
235.662	20.3876
235.883	44.98911
236.103	37.9015
236.323	26.73601
236.543	16.06202
236.763	30.38422
236.983	27.3675
237.203	30.07922
237.423	42.86275
237.643	62.34103
237.864	51.70454
238.084	11.98206
238.304	21.553
238.524	31.8395
238.744	28.5978
238.964	46.50424
239.184	44.40781
239.404	42.62455
239.624	23.07875
239.843	40.3712
240.063	22.37794
240.283	17.40003
240.503	16.96985
240.723	17.1096
240.943	8.67162
241.163	13.71616
241.383	9.53973
241.603	4.99743
241.822	5.94501
242.042	4.6129
242.262	5.80695
242.482	6.89193
242.702	7.91266
242.921	2.57028
243.141	5.50585
243.361	5.27652
243.581	7.46753
243.8	6.32164
244.02	3.54549
244.24	7.74229
244.459	6.9949
244.679	14.41726
244.899	9.61108
245.118	10.41165
245.338	9.41252
245.558	9.98945
245.777	6.18547
245.997	7.26986
246.216	7.33858
246.436	4.34972
246.655	3.1485
246.875	2.44002
247.094	4.71698
247.314	1.60517
247.533	2.66092
247.753	3.56322
247.972	2.58859
248.192	0.96955
248.411	1.70961
248.631	3.073
248.85	3.91976
249.07	2.97265
249.289	5.39653
249.508	3.96252
249.728	6.3203
249.947	6.56354
250.166	6.75254
250.386	3.78932
250.605	5.81894
250.824	7.87471
251.044	5.8769
251.263	20.33546
251.482	10.43568
251.701	9.80179
251.921	-0.14615
252.14	3.06067
252.359	3.58129
252.578	8.45408
252.798	2.5714
253.017	7.13031
253.236	3.60294
253.455	4.92736
253.674	9.32128
253.893	4.72254
254.112	6.4725
254.331	9.70075
254.551	7.63945
254.77	4.27322
254.989	11.42348
255.208	10.01277
255.427	12.83704
255.646	10.58883
255.865	17.75023
256.084	7.76257
256.303	8.08008
256.522	11.03911
256.741	2.15018
256.96	3.09871
257.179	6.81769
257.397	8.53033
257.616	4.72244
257.835	4.61881
258.054	12.50909
258.273	7.36518
258.492	8.4448
258.711	4.59337
258.93	2.17739
259.148	3.27376
259.367	3.49143
259.586	4.45166
259.805	2.16932
260.023	4.35684
260.242	3.2813
260.461	2.32037
260.68	1.38299
260.898	3.67992
261.117	1.14174
261.336	0.86711
261.554	3.18993
261.773	3.07771
261.992	0.74568
262.21	2.87034
262.429	3.6702
262.648	6.30465
262.866	7.12105
263.085	4.4325
263.303	4.17757
263.522	7.4286
263.74	7.66483
263.959	12.87766
264.178	6.6723
264.396	5.99731
264.615	4.62529
264.833	9.81677
265.051	8.72765
265.27	8.20799
265.488	9.50445
265.707	6.19891
265.925	9.21814
266.144	4.01979
266.362	5.38947
266.58	5.18423
266.799	4.04311
267.017	5.20183
267.235	4.53971
267.454	2.76458
267.672	1.75783
267.89	3.68298
268.109	4.01933
268.327	3.70622
268.545	0.98834
268.763	3.5988
268.982	1.81406
269.2	4.95105
269.418	2.69265
269.636	2.00965
269.854	3.32208
270.073	2.90378
270.291	1.57926
270.509	1.88745
270.727	3.8264
270.945	6.08356
271.163	5.95665
271.381	1.68845
271.599	2.74631
271.817	4.35329
272.036	1.55529
272.254	2.55616
272.472	2.04059
272.69	2.22095
272.908	2.1818
273.126	3.73021
273.344	4.61684
273.562	1.7949
273.779	2.21772
273.997	3.38211
274.215	3.74818
274.433	2.54486
274.651	3.9293
274.869	3.94794
275.087	2.37412
275.305	3.83135
275.523	2.02261
275.74	2.95166
275.958	4.93255
276.176	7.02106
276.394	2.38067
276.612	2.87806
276.829	2.86559
277.047	2.37181
277.265	2.64724
277.483	3.0484
277.7	3.90001
277.918	3.23075
278.136	5.64736
278.353	2.82134
278.571	1.5109
278.789	4.47908
279.006	0.71169
279.224	2.66028
279.442	4.26356
279.659	3.12592
279.877	1.92118
280.094	4.73947
280.312	0.92966
280.529	2.90012
280.747	0.80657
280.964	2.26073
281.182	5.43716
281.399	2.2199
281.617	3.23335
281.834	2.50822
282.052	1.92306
282.269	2.6344
282.487	2.21211
282.704	1.5906
282.921	2.02162
283.139	2.94858
283.356	3.70878
283.574	3.32023
283.791	1.68737
284.008	4.61923
284.226	2.51881
284.443	2.85207
284.66	3.51126
284.877	2.95624
285.095	2.07057
285.312	1.42476
285.529	1.03046
285.746	0.62654
285.964	1.88805
286.181	1.00541
286.398	1.69263
286.615	2.41757
286.832	2.33736
287.05	0.59292
287.267	1.48602
287.484	1.82422
287.701	2.38743
287.918	2.3558
288.135	2.45718
288.352	1.28009
288.569	1.34886
288.786	2.17023
289.003	1.74997
289.22	2.42066
289.437	1.63659
289.654	2.66074
289.871	2.72384
290.088	2.61562
290.305	2.09734
290.522	1.56159
290.739	2.04383
290.956	2.88166
291.173	3.35355
291.39	3.10556
291.607	2.16833
291.824	1.582
292.04	1.05549
292.257	2.48902
292.474	2.91856
292.691	1.75129
292.908	1.03777
293.125	1.84549
293.341	0.92059
293.558	4.62024
293.775	1.98667
293.992	1.96442
294.208	0.72077
294.425	1.06733
294.642	1.65629
294.858	2.62381
295.075	0.62263
295.292	1.81758
295.508	2.13569
295.725	3.35158
295.942	1.67255
296.158	1.24275
296.375	1.87313
296.591	1.43752
296.808	1.56658
297.024	1.68237
297.241	1.94098
297.458	2.18877
297.674	0.26671
297.891	1.62422
298.107	1.31082
298.323	0.9977
298.54	2.58972
298.756	1.1527
298.973	0.52582
299.189	2.66646
299.406	1.04429
299.622	2.65804
299.838	2.54702
300.055	2.51023
300.271	0.65254
300.487	0.86013
300.704	1.103
300.92	0.81842
301.136	3.60087
301.353	2.50002
301.569	1.83946
301.785	2.09903
302.001	2.63628
302.218	2.21214
302.434	1.96622
302.65	0.8152
302.866	1.43043
303.083	3.39177
303.299	3.359
303.515	1.82372
303.731	1.89753
303.947	0.70939
304.163	1.14378
304.379	2.10327
304.595	2.32538
304.812	1.2959
305.028	1.05422
305.244	1.43071
305.46	2.49016
305.676	2.543
305.892	3.13403
306.108	1.91899
306.324	1.51667
306.54	3.4526
306.756	2.32242
306.972	2.40138
307.187	1.78535
307.403	3.2332
307.619	1.33227
307.835	2.80561
308.051	3.09287
308.267	0.67246
308.483	2.53867
308.699	2.22074
308.914	1.92307
309.13	1.78623
309.346	0.4183
309.562	1.06758
309.778	0.70268
309.993	2.22925
310.209	1.70846
310.425	0.77723
310.641	1.58541
310.856	0.91637
311.072	0.78429
311.288	1.66598
311.503	1.90032
311.719	0.33801
311.935	0.20945
312.15	1.96153
312.366	1.7769
312.581	2.16147
312.797	1.70267
313.013	2.4085
313.228	1.24325
313.444	1.76924
313.659	1.27405
313.875	1.97629
314.09	1.67796
314.306	2.95662
314.521	2.4628
314.737	2.54057
314.952	2.06689
315.168	1.68725
315.383	2.40261
315.599	1.43157
315.814	1.49791
316.029	2.3437
316.245	0.78101
316.46	0.72139
316.675	2.9725
316.891	3.80295
317.106	4.14837
317.321	2.39667
317.537	2.26689
317.752	2.47347
317.967	2.40304
318.183	1.24382
318.398	1.5846
318.613	2.70564
318.828	3.047
319.043	2.54426
319.259	1.51538
319.474	2.31052
319.689	2.99988
319.904	0.37208
320.119	2.34744
320.334	2.18286
320.549	1.64672
320.765	2.85574
320.98	2.29225
321.195	2.8206
321.41	1.90894
321.625	2.44861
321.84	3.54919
322.055	3.61197
322.27	1.42689
322.485	0.79355
322.7	1.98374
322.915	2.9125
323.13	1.22145
323.345	3.0956
323.56	2.64925
323.775	2.45792
323.989	2.51032
324.204	1.85257
324.419	2.60186
324.634	0.82478
324.849	1.75608
325.064	4.0702
325.279	2.89445
325.493	2.52653
325.708	2.83711
325.923	1.24466
326.138	1.11232
326.352	3.25902
326.567	2.67469
326.782	1.6989
326.997	1.24309
327.211	2.35733
327.426	2.33409
327.641	1.50785
327.855	0.71758
328.07	2.46396
328.285	3.29355
328.499	1.60403
328.714	2.44459
328.928	2.48635
329.143	2.11594
329.358	2.77907
329.572	2.90554
329.787	3.06696
330.001	3.95176
330.216	0.85217
330.43	3.57897
330.645	3.39627
330.859	2.71913
331.074	1.38931
331.288	2.22071
331.503	2.96458
331.717	1.07398
331.931	1.92175
332.146	1.97121
332.36	3.5137
332.575	2.40259
332.789	2.07618
333.003	1.92765
333.218	2.381
333.432	1.67667
333.646	2.40801
333.86	3.24705
334.075	3.34509
334.289	1.70747
334.503	1.18047
334.717	2.45733
334.932	2.52713
335.146	3.10626
335.36	1.87177
335.574	2.44947
335.788	2.5543
336.003	3.12524
336.217	2.6391
336.431	2.48453
336.645	1.40618
336.859	0.97439
337.073	1.69161
337.287	2.28882
337.501	1.18232
337.715	1.98218
337.929	2.61071
338.143	1.16497
338.357	1.89447
338.571	1.16584
338.785	2.39155
338.999	1.64405
339.213	1.60733
339.427	0.83247
339.641	2.91155
339.855	1.87393
340.069	1.53302
340.283	2.9804
340.497	3.43646
340.711	2.30259
340.924	1.6055
341.138	1.02087
341.352	0.95215
341.566	2.28517
341.78	0.62942
341.993	1.62155
342.207	1.11588
342.421	2.07587
342.635	1.89852
342.848	1.45862
343.062	0.15231
343.276	1.32842
343.49	3.84467
343.703	1.37757
343.917	2.54795
344.131	2.74994
344.344	1.29942
344.558	1.52922
344.771	1.21082
344.985	3.11684
345.199	3.23215
345.412	1.99813
345.626	2.18693
345.839	0.57986
346.053	0.92837
346.266	0.99612
346.48	2.62129
346.693	2.08502
346.907	2.32653
347.12	1.29111
347.334	2.16706
347.547	2.23337
347.76	1.72322
347.974	2.64506
348.187	2.17916
348.401	1.63237
348.614	1.61952
348.827	1.58068
349.041	2.52128
349.254	0.54002
349.467	1.70334
349.681	0.83296
349.894	1.39416
350.107	2.97574
350.32	3.00236
350.534	0.61779
350.747	1.47688
350.96	1.10672
351.173	1.40369
351.386	1.70366
351.6	1.4277
351.813	1.36547
352.026	1.94762
352.239	0.71496
352.452	1.44137
352.665	2.38247
352.878	1.50474
353.092	3.61848
353.305	2.354
353.518	2.13568
353.731	1.14214
353.944	2.80866
354.157	1.1323
354.37	1.17934
354.583	0.95572
354.796	0.52923
355.009	2.69464
355.222	1.82241
355.435	1.846
355.647	2.61887
355.86	0.97001
356.073	1.65358
356.286	1.35941
356.499	2.29125
356.712	1.89904
356.925	2.1623
357.138	2.4078
357.35	0.88535
357.563	1.33216
357.776	1.77466
357.989	1.32584
358.201	2.12509
358.414	1.65577
358.627	2.64958
358.84	1.4599
359.052	0.94829
359.265	0.72525
359.478	2.47694
359.69	-0.39542
359.903	2.01501
360.116	2.14368
360.328	0.35469
360.541	2.317
360.753	0.76466
360.966	1.00546
361.179	1.19134
361.391	1.08981
361.604	0.68623
361.816	1.02601
362.029	0.93008
362.241	0.79983
362.454	0.93818
362.666	0.82184
362.879	1.32444
363.091	1.20417
363.304	0.88591
363.516	1.5432
363.728	0.65054
363.941	1.7457
364.153	0.79159
364.366	0.02844
364.578	0.77698
364.79	1.83823
365.003	1.49143
365.215	1.33775
365.427	1.83747
365.639	2.44278
365.852	1.73659
366.064	3.27881
366.276	1.0153
366.488	1.84337
366.701	1.15327
366.913	1.36916
367.125	1.40615
367.337	0.9928
367.549	1.1422
367.762	1.47389
367.974	1.66459
368.186	0.74024
368.398	2.17623
368.61	1.91123
368.822	1.9556
369.034	1.53894
369.246	1.91565
369.458	3.16659
369.67	0.7395
369.882	2.82065
370.094	0.19338
370.306	2.80987
370.518	1.26654
370.73	0.85364
370.942	0.85077
371.154	1.1972
371.366	0.99591
371.578	1.67713
371.79	0.75859
372.002	2.42092
372.214	2.71665
372.425	1.60411
372.637	2.3642
372.849	1.4366
373.061	-0.07613
373.273	1.69114
373.484	1.8955
373.696	2.05062
373.908	-0.08564
374.12	2.29126
374.331	1.7194
374.543	0.8951
374.755	0.61968
374.967	1.61813
375.178	1.86462
375.39	1.38152
375.602	1.63087
375.813	0.72157
376.025	0.27716
376.236	1.37539
376.448	1.55101
376.66	0.91176
376.871	0.93792
377.083	2.14644
377.294	2.04691
377.506	1.00906
377.717	2.18311
377.929	1.51459
378.14	0.77009
378.352	1.74153
378.563	1.68142
378.775	2.10504
378.986	0.89325
379.197	1.48339
379.409	1.0995
379.62	1.86527
379.832	1.74018
380.043	1.28539
380.254	1.3648
380.466	0.53143
380.677	3.47248
380.888	3.10621
381.1	3.04941
381.311	2.7904
381.522	1.20942
381.733	3.44394
381.945	1.2459
382.156	1.5038
382.367	1.07717
382.578	3.37647
382.789	3.42895
383.001	1.27044
383.212	2.13134
383.423	2.44087
383.634	2.18912
383.845	1.52409
384.056	0.9333
384.267	1.11358
384.478	1.1471
384.69	0.49109
384.901	1.76301
385.112	1.58436
385.323	2.30635
385.534	1.65635
385.745	1.72803
385.956	1.6132
386.167	0.55413
386.378	1.60372
386.588	0.18676
386.799	0.83476
387.01	0.1264
387.221	1.89794
387.432	1.27001
387.643	2.67296
387.854	1.3045
388.065	1.10276
388.275	1.13898
388.486	1.26381
388.697	1.28727
388.908	1.12062
389.119	2.049
389.329	2.42029
389.54	1.28135
389.751	1.68514
389.962	2.15342
390.172	1.53823
390.383	0.90409
390.594	0.96349
390.804	0.74489
391.015	0.70557
391.226	1.39112
391.436	1.51362
391.647	1.48312
391.858	1.6574
392.068	0.20113
392.279	0.39805
392.489	1.2429
392.7	2.11207
392.91	0.4602
393.121	0.74797
393.331	1.57724
393.542	1.93143
393.752	1.4669
393.963	1.17328
394.173	1.16539
394.384	1.67747
394.594	1.24027
394.804	0.39058
395.015	1.27093
395.225	1.52652
395.436	0.63811
395.646	1.80317
395.856	0.66376
396.067	0.47636
396.277	1.94281
396.487	1.41058
396.697	1.05519
396.908	1.77196
397.118	1.81552
397.328	1.32025
397.538	1.96404
397.749	0.76114
397.959	1.81964
398.169	2.07457
398.379	0.40512
398.589	1.71443
398.8	1.41726
399.01	0.86997
399.22	1.21341
399.43	2.79715
399.64	0.81531
399.85	1.88438
400.06	0.95645
400.27	0.85012
400.48	1.40734
400.69	2.2795
400.9	0.94669
401.11	0.84924
401.32	2.08149
401.53	0.89577
401.74	2.41038
401.95	1.92391
402.16	0.43805
402.37	1.40714
402.58	0.79541
402.79	1.74927
403	1.912
403.209	0.9402
403.419	1.9672
403.629	0.80709
403.839	1.70776
404.049	1.77888
404.258	0.55149
404.468	0.61497
404.678	1.65225
404.888	1.50949
405.097	0.50534
405.307	1.25299
405.517	1.50476
405.727	1.25289
405.936	1.11203
406.146	1.38376
406.356	2.17231
406.565	1.16557
406.775	0.64615
406.984	0.73198
407.194	2.465
407.404	1.37079
407.613	1.48909
407.823	1.84874
408.032	1.9684
408.242	2.06961
408.451	1.1417
408.661	1.13861
408.87	2.3936
409.08	0.86634
409.289	1.69221
409.499	1.25079
409.708	1.52491
409.918	0.07639
410.127	1.27004
410.336	2.434
410.546	1.74805
410.755	0.9627
410.964	1.05922
411.174	0.71268
411.383	1.72881
411.592	1.64592
411.802	0.63352
412.011	1.92753
412.22	1.28214
412.429	2.37523
412.639	2.23069
412.848	2.24309
413.057	2.45431
413.266	2.18999
413.475	1.41013
413.685	1.98068
413.894	1.86656
414.103	2.26186
414.312	1.99832
414.521	1.39143
414.73	1.62942
414.939	2.70826
415.148	1.79977
415.357	1.72734
415.566	1.23228
415.776	1.28809
415.985	1.04344
416.194	1.79688
416.403	2.30596
416.611	0.38934
416.82	0.90645
417.029	1.36164
417.238	0.86017
417.447	0.61245
417.656	1.00771
417.865	0.75807
418.074	0.92816
418.283	1.14763
418.492	1.82101
418.7	1.61009
418.909	2.38102
419.118	1.48964
419.327	1.76151
419.536	1.43892
419.744	1.10681
419.953	2.07209
420.162	2.22693
420.371	0.95975
420.579	0.90356
420.788	1.99464
420.997	1.95649
421.205	1.93567
421.414	1.72067
421.623	1.62517
421.831	1.25283
422.04	2.01354
422.249	1.22574
422.457	1.89849
422.666	1.16674
422.874	2.27142
423.083	2.36855
423.291	2.06513
423.5	1.81552
423.708	2.01529
423.917	2.46479
424.125	1.81464
424.334	1.54775
424.542	3.38627
424.751	2.64532
424.959	2.35744
425.167	2.76485
425.376	2.59083
425.584	2.00493
425.793	2.21862
426.001	1.39349
426.209	2.26488
426.418	1.37998
426.626	1.42084
426.834	1.07213
427.042	1.5237
427.251	1.27662
427.459	2.04037
427.667	1.73116
427.875	0.97085
428.084	1.36479
428.292	2.41289
428.5	1.83489
428.708	1.13749
428.916	1.00126
429.124	1.67335
429.333	1.45731
429.541	1.49472
429.749	1.63272
429.957	1.58405
430.165	3.0507
430.373	0.9193
430.581	1.7361
430.789	2.47738
430.997	1.31579
431.205	1.25254
431.413	1.66082
431.621	1.41527
431.829	2.05538
432.037	1.31442
432.245	1.97605
432.453	1.82875
432.661	1.38391
432.869	2.74121
433.076	1.11835
433.284	1.73581
433.492	2.0452
433.7	2.417
433.908	1.50664
434.116	1.91037
434.323	1.81628
434.531	1.73184
434.739	1.94282
434.947	2.17209
435.154	2.13883
435.362	1.74989
435.57	1.65715
435.778	1.4324
435.985	1.85912
436.193	1.48957
436.401	2.35896
436.608	1.72817
436.816	1.50826
437.023	2.76967
437.231	2.66751
437.439	1.886
437.646	2.08064
437.854	1.88987
438.061	2.33357
438.269	1.71018
438.476	2.18021
438.684	1.86279
438.891	1.66636
439.099	1.38577
439.306	1.20953
439.514	1.36291
439.721	2.2644
439.929	1.7092
440.136	2.47577
440.343	2.3407
440.551	2.02126
440.758	3.7262
440.965	2.65854
441.173	2.28321
441.38	1.80701
441.587	2.25292
441.795	1.89256
442.002	2.11592
442.209	2.21409
442.416	2.39351
442.624	2.24782
442.831	2.08591
443.038	1.52576
443.245	1.356
443.452	1.63765
443.66	2.335
443.867	1.50729
444.074	1.54579
444.281	1.48401
444.488	1.79966
444.695	1.96302
444.902	1.75277
445.109	2.60764
445.316	2.00225
445.523	1.95627
445.73	1.8626
445.937	2.39031
446.144	2.8601
446.351	2.77899
446.558	1.98277
446.765	3.25677
446.972	3.27912
447.179	2.48034
447.386	3.44229
447.593	2.10584
447.8	3.24989
448.007	2.1984
448.214	2.25128
448.42	1.78912
448.627	2.67892
448.834	1.92154
449.041	1.8273
449.248	1.93963
449.454	2.38015
449.661	3.00259
449.868	1.88509
450.075	1.62689
450.281	1.04836
450.488	1.23973
450.695	1.50696
450.901	1.39275
451.108	1.81948
451.315	2.42056
451.521	1.88077
451.728	2.52624
451.935	1.56702
452.141	1.80417
452.348	2.03541
452.554	1.90185
452.761	1.60137
452.967	2.86461
453.174	1.9497
453.38	2.12714
453.587	1.29382
453.793	2.11711
454	2.66799
454.206	3.29728
454.413	2.66547
454.619	2.33594
454.825	1.54171
455.032	2.37921
455.238	2.51903
455.445	1.26501
455.651	2.13993
455.857	1.02025
456.064	1.71315
456.27	1.87392
456.476	1.94012
456.682	1.3093
456.889	2.14438
457.095	2.35991
457.301	3.41273
457.507	2.10293
457.714	1.97481
457.92	1.88644
458.126	1.50977
458.332	1.82507
458.538	1.76903
458.744	1.75055
458.951	1.91703
459.157	3.38174
459.363	2.43075
459.569	2.33818
459.775	3.06881
459.981	2.15722
460.187	2.57443
460.393	2.89022
460.599	3.59599
460.805	2.62905
461.011	2.40053
461.217	2.98441
461.423	2.82075
461.629	1.96286
461.835	2.53544
462.041	1.94149
462.247	3.04816
462.453	2.09993
462.658	2.05956
462.864	2.54612
463.07	2.46964
463.276	2.33393
463.482	2.26843
463.688	2.89399
463.893	1.92148
464.099	1.97925
464.305	3.13002
464.511	1.908
464.716	2.18917
464.922	2.65134
465.128	1.67
465.333	3.2244
465.539	2.44227
465.745	2.11912
465.95	2.36542
466.156	3.90267
466.362	2.89315
466.567	2.21212
466.773	2.10367
466.978	3.22971
467.184	1.69934
467.389	1.06182
467.595	2.54969
467.8	1.61335
468.006	3.05803
468.211	3.01079
468.417	1.66614
468.622	2.44868
468.828	2.67786
469.033	2.52845
469.239	4.07604
469.444	2.03712
469.649	2.87732
469.855	2.21035
470.06	2.33407
470.266	1.66229
470.471	2.7334
470.676	2.54134
470.881	1.44032
471.087	2.97061
471.292	3.53992
471.497	1.53985
471.703	2.08548
471.908	2.10442
472.113	2.31941
472.318	2.86189
472.523	1.71509
472.729	2.49812
472.934	2.80887
473.139	1.92769
473.344	2.84318
473.549	3.01066
473.754	1.91393
473.959	3.88164
474.164	1.8341
474.369	2.20685
474.575	2.89533
474.78	2.43653
474.985	1.99572
475.19	1.40191
475.395	1.74505
475.6	2.25659
475.804	3.32039
476.009	2.16282
476.214	2.21518
476.419	1.86912
476.624	1.2584
476.829	1.78029
477.034	2.52287
477.239	1.8165
477.444	2.51673
477.648	2.50226
477.853	2.79319
478.058	1.99982
478.263	1.82187
478.468	1.54552
478.672	1.79622
478.877	2.9272
479.082	3.21588
479.287	2.50361
479.491	2.26571
479.696	1.45717
479.901	2.65022
480.105	2.73449
480.31	1.7957
480.515	1.96806
480.719	3.43886
480.924	1.83373
481.128	1.52453
481.333	2.34165
481.538	2.42427
481.742	2.13297
481.947	2.8398
482.151	3.04909
482.356	2.74388
482.56	3.7724
482.765	3.99726
482.969	5.03758
483.174	5.59475
483.378	6.81008
483.582	6.53715
483.787	7.46865
483.991	7.19324
484.196	7.43856
484.4	7.2676
484.604	7.95442
484.809	6.4854
485.013	6.44653
485.217	5.62165
485.422	5.15033
485.626	4.44771
485.83	4.57557
486.034	4.21041
486.239	4.3073
486.443	4.19459
486.647	4.08252
486.851	4.82632
487.055	5.40366
487.26	4.64765
487.464	5.39018
487.668	4.58041
487.872	4.65619
488.076	5.22918
488.28	4.91366
488.484	4.4154
488.688	4.54282
488.892	4.51277
489.096	4.24811
489.3	3.70172
489.504	3.53496
489.708	3.72976
489.912	3.60624
490.116	3.57478
490.32	2.81226
490.524	3.51578
490.728	3.61996
490.932	3.70589
491.136	3.48527
491.34	4.47125
491.544	4.72663
491.748	4.12462
491.951	4.35526
492.155	3.92303
492.359	4.23008
492.563	3.28235
492.767	3.26997
492.97	2.94997
493.174	2.59588
493.378	2.57752
493.582	2.01653
493.785	2.23162
493.989	2.29667
494.193	2.32334
494.396	2.03083
494.6	2.45412
494.804	2.12173
495.007	1.86761
495.211	1.92355
495.414	2.12166
495.618	2.33683
495.822	2.97952
496.025	2.11082
496.229	2.69513
496.432	1.76322
496.636	2.27941
496.839	2.24616
497.043	3.25325
497.246	2.51962
497.45	2.01518
497.653	2.30816
497.856	2.4143
498.06	1.6594
498.263	2.12344
498.467	1.87516
498.67	2.76228
498.873	2.32848
499.077	2.00617
499.28	2.09064
499.483	2.36274
499.686	2.72646
499.89	2.5781
500.093	2.75138
500.296	1.74142
500.499	3.06178
500.703	2.28611
500.906	2.31553
501.109	3.40457
501.312	2.32891
501.515	2.10292
501.719	2.4935
501.922	3.26008
502.125	2.52081
502.328	2.10516
502.531	1.61831
502.734	2.25374
502.937	1.15336
503.14	2.24972
503.343	1.5734
503.546	1.9487
503.749	1.83896
503.952	2.47218
504.155	1.74404
504.358	2.45776
504.561	2.32197
504.764	1.41948
504.967	2.06021
505.17	2.24477
505.373	3.03187
505.576	2.24255
505.778	2.65645
505.981	1.93177
506.184	2.77253
506.387	1.44677
506.59	3.39572
506.793	2.82418
506.995	2.44717
507.198	1.15031
507.401	2.27988
507.604	2.51412
507.806	1.58004
508.009	1.72277
508.212	2.51488
508.414	1.826
508.617	1.61137
508.82	2.01213
509.022	2.80243
509.225	2.31043
509.427	1.22747
509.63	2.83031
509.833	2.07275
510.035	1.9229
510.238	1.19723
510.44	2.86562
510.643	1.01217
510.845	3.48707
511.048	2.31901
511.25	1.80118
511.453	2.03691
511.655	2.32622
511.858	1.88412
512.06	2.51021
512.262	2.16353
512.465	2.44848
512.667	1.73424
512.869	1.54329
513.072	2.34811
513.274	2.63416
513.476	2.37656
513.679	2.67951
513.881	1.48505
514.083	3.03564
514.286	1.70267
514.488	1.88958
514.69	1.62727
514.892	1.47586
515.094	2.39562
515.297	1.94855
515.499	2.31051
515.701	1.70473
515.903	3.1835
516.105	3.0327
516.307	2.53044
516.509	1.06298
516.711	1.4087
516.913	2.05678
517.116	1.95416
517.318	1.77702
517.52	2.59493
517.722	2.2639
517.924	1.42206
518.126	2.31474
518.328	1.67858
518.529	2.42024
518.731	3.31829
518.933	1.66899
519.135	2.00345
519.337	2.84971
519.539	2.27195
519.741	1.16534
519.943	1.90849
520.145	1.9358
520.346	2.50256
520.548	1.77942
520.75	2.17287
520.952	1.67037
521.153	2.09163
521.355	2.37704
521.557	1.63974
521.759	2.25745
521.96	2.00336
522.162	1.63514
522.364	2.75237
522.565	1.71435
522.767	2.58676
522.969	2.78758
523.17	2.30362
523.372	2.41412
523.573	1.66321
523.775	1.80805
523.977	1.49842
524.178	3.21269
524.38	1.60956
524.581	2.31092
524.783	1.68837
524.984	2.38294
525.186	2.14247
525.387	2.51983
525.589	2.16872
525.79	2.01248
525.991	1.62708
526.193	2.43612
526.394	1.48902
526.596	2.32262
526.797	2.35641
526.998	2.05093
527.2	1.72038
527.401	2.92924
527.602	2.92153
527.803	4.08995
528.005	3.79105
528.206	4.27453
528.407	4.50074
528.608	4.1013
528.81	4.24917
529.011	3.64712
529.212	4.71404
529.413	3.99383
529.614	3.68088
529.815	3.84485
530.017	3.55811
530.218	3.05656
530.419	2.64805
530.62	2.72666
530.821	2.54837
531.022	1.6459
531.223	2.68924
531.424	2.6426
531.625	2.61669
531.826	2.42983
532.027	2.41349
532.228	3.28462
532.429	2.63442
532.63	2.6165
532.831	2.81303
533.032	2.85713
533.233	3.24683
533.433	2.89202
533.634	3.14364
533.835	2.68596
534.036	2.34238
534.237	2.55005
534.438	2.17982
534.638	1.79926
534.839	1.82615
535.04	2.38117
535.241	1.84069
535.441	2.85679
535.642	2.33418
535.843	1.40575
536.043	1.70695
536.244	1.89471
536.445	1.9384
536.645	2.66606
536.846	2.07888
537.047	2.99497
537.247	1.64467
537.448	1.94189
537.648	2.07784
537.849	1.98396
538.049	1.99736
538.25	2.37101
538.451	2.37705
538.651	1.66058
538.851	2.48346
539.052	2.69374
539.252	2.38578
539.453	2.0043
539.653	1.91945
539.854	2.08388
540.054	2.0543
540.254	2.91006
540.455	3.02442
540.655	2.23329
540.855	2.85156
541.056	3.35485
541.256	2.97653
541.456	3.71418
541.657	2.8746
541.857	3.73953
542.057	2.46908
542.257	2.36444
542.458	3.32423
542.658	3.46886
542.858	1.98826
543.058	3.0849
543.258	2.56237
543.458	1.57662
543.659	1.37587
543.859	2.42142
544.059	2.38912
544.259	2.03556
544.459	2.58289
544.659	1.66557
544.859	2.31759
545.059	1.6398
545.259	2.35344
545.459	2.21267
545.659	2.48959
545.859	2.16186
546.059	2.10614
546.259	1.46996
546.459	1.05401
546.659	1.396
546.859	2.40753
547.059	1.98987
547.258	2.30076
547.458	2.25334
547.658	1.3829
547.858	1.53842
548.058	2.34997
548.258	2.04359
548.457	1.52497
548.657	3.78986
548.857	1.97072
549.057	2.85116
549.256	2.42205
549.456	2.13421
549.656	0.97206
549.855	3.74318
550.055	2.40551
550.255	3.60486
550.454	2.98621
550.654	3.11882
550.853	3.48813
551.053	3.05983
551.253	2.68179
551.452	2.89513
551.652	1.64118
551.851	0.98807
552.051	2.09498
552.25	2.04764
552.45	1.74762
552.649	1.97915
552.849	1.77323
553.048	2.43974
553.248	2.53235
553.447	1.63382
553.646	2.94269
553.846	4.03507
554.045	3.34307
554.244	1.71518
554.444	3.61084
554.643	1.89804
554.842	3.46632
555.042	4.09101
555.241	2.16185
555.44	1.99066
555.64	2.57139
555.839	3.78901
556.038	2.80096
556.237	2.201
556.436	2.37239
556.636	2.93954
556.835	1.95555
557.034	3.84472
557.233	2.54985
557.432	1.77943
557.631	3.29127
557.83	2.37209
558.029	2.23471
558.228	2.41176
558.427	1.81586
558.626	2.93395
558.825	2.11399
559.024	2.76243
559.223	4.23553
559.422	2.78018
559.621	3.27694
559.82	0.88066
560.019	2.81184
560.218	2.35495
560.417	0.27507
560.616	2.36399
560.815	4.97697
561.014	1.38016
561.212	3.50518
561.411	2.58297
561.61	1.29298
561.809	2.38238
562.008	3.97723
562.206	2.48489
562.405	2.95733
562.604	2.29725
562.803	2.80736
563.001	2.7035
563.2	1.4427
563.399	3.05229
563.597	1.87728
563.796	2.92924
563.995	1.2331
564.193	3.08834
564.392	2.3295
564.59	4.33497
564.789	0.94193
564.988	2.39736
565.186	2.68924
565.385	2.52139
565.583	2.02733
565.782	2.33133
565.98	2.12485
566.179	2.31599
566.377	1.24089
566.575	1.61498
566.774	3.21946
566.972	3.05112
567.171	3.738
567.369	3.51298
567.567	2.47016
567.766	2.80498
567.964	0.99313
568.162	2.89093
568.361	3.58149
568.559	2.51537
568.757	3.09157
568.956	2.8087
569.154	2.45304
569.352	3.32934
569.55	2.37673
569.748	2.35493
569.947	1.98298
570.145	1.87489
570.343	1.713
570.541	3.73309
570.739	1.23948
570.937	2.40787
571.135	2.6873
571.333	4.09301
571.532	3.67408
571.73	2.57793
571.928	3.18658
572.126	2.82615
572.324	1.94124
572.522	3.40869
572.72	4.44561
572.918	2.54197
573.116	2.87084
573.313	2.52081
573.511	2.51481
573.709	2.29916
573.907	2.87645
574.105	2.40269
574.303	1.11453
574.501	1.34005
574.699	2.56481
574.896	2.59477
575.094	3.1063
575.292	1.50697
575.49	3.12894
575.688	2.49909
575.885	3.70239
576.083	4.03433
576.281	2.81126
576.478	2.20707
576.676	3.08922
576.874	1.52999
577.071	2.42039
577.269	4.59391
577.467	2.63822
577.664	3.15122
577.862	3.50286
578.059	2.19885
578.257	3.63131
578.455	2.85937
578.652	3.08921
578.85	1.33151
579.047	3.0352
579.245	2.58033
579.442	3.00685
579.64	3.02555
579.837	1.33641
580.034	5.32537
580.232	2.70514
580.429	2.00566
580.627	3.91047
580.824	4.2866
581.021	3.60037
581.219	2.64997
581.416	2.10131
581.613	4.21193
581.811	4.20352
582.008	1.99455
582.205	4.03045
582.402	3.544
582.6	5.41375
582.797	3.29356
582.994	3.6736
583.191	3.9362
583.388	3.59576
583.586	3.8088
583.783	4.64824
583.98	2.56214
584.177	3.52035
584.374	0.06485
584.571	3.00195
584.768	3.41558
584.965	2.6923
585.162	4.05683
585.359	5.02589
585.556	3.25852
585.753	3.36773
585.95	1.93137
586.147	2.77839
586.344	4.07313
586.541	3.12527
586.738	2.00903
586.935	3.51607
587.132	2.48782
587.329	4.41729
587.526	3.23958
587.722	8.23393
587.919	2.11941
588.116	3.72639
588.313	4.92468
588.51	5.71088
588.706	3.02712
588.903	3.59422
589.1	4.13422
589.297	6.01518
589.493	3.05947
589.69	3.86264
589.887	2.74423
590.083	1.99426
590.28	2.41107
590.477	4.24106
590.673	3.93785
590.87	4.44288
591.067	3.17999
591.263	4.23455
591.46	3.67189
591.656	3.25841
591.853	5.44924
592.049	2.48706
592.246	2.59306
592.442	4.81617
592.639	4.40045
592.835	1.9022
593.032	3.72368
593.228	1.8296
593.425	1.62303
593.621	1.9529
593.817	3.29753
594.014	2.66509
594.21	3.39819
594.406	4.6852
594.603	3.45235
594.799	2.64856
594.995	0.63037
595.192	4.04041
595.388	2.43442
595.584	2.55792
595.78	1.73329
595.977	5.86158
596.173	4.87105
596.369	2.75742
596.565	2.24209
596.761	2.10164
596.957	4.35138
597.154	1.90546
597.35	2.49176
597.546	2.13628
597.742	3.53138
597.938	3.39526
598.134	2.05902
598.33	3.42186
598.526	4.72816
598.722	4.24608
598.918	5.57303
599.114	4.17082
599.31	2.9045
599.506	3.71425
599.702	3.05143
599.898	4.14174
600.094	4.67221
600.29	3.79921
600.485	4.64052
600.681	3.50454
600.877	5.6378
601.073	3.62614
601.269	6.34582
601.465	5.13997
601.66	2.60059
601.856	1.71539
602.052	5.64427
602.248	3.02756
602.443	1.13582
602.639	2.00265
602.835	2.49946
603.03	2.32411
603.226	3.85871
603.422	2.20025
603.617	2.63522
603.813	2.56252
604.009	2.36277
604.204	4.22925
604.4	1.49612
604.595	3.84049
604.791	1.98653
604.986	3.19527
605.182	2.00872
605.377	2.57878
605.573	2.33056
605.768	3.27576
605.964	3.75166
606.159	4.28653
606.355	4.77129
606.55	2.99373
606.746	4.74138
606.941	3.71939
607.136	5.79371
607.332	6.74099
607.527	2.24043
607.722	3.98341
607.918	3.38317
608.113	2.53191
608.308	4.33699
608.503	3.91926
608.699	3.44193
608.894	4.08743
609.089	2.36405
609.284	3.34636
609.479	2.67849
609.675	3.49902
609.87	3.09652
610.065	3.88098
610.26	4.454
610.455	4.25261
610.65	3.15826
610.845	3.84808
611.04	4.38184
611.235	3.23321
611.43	3.01201
611.625	2.23729
611.82	4.98324
612.015	2.85689
612.21	5.73051
612.405	2.09666
612.6	6.21913
612.795	5.6755
612.99	5.30324
613.185	2.33139
613.38	3.04074
613.575	4.47543
613.77	7.57959
613.965	2.18436
614.159	3.15498
614.354	6.16002
614.549	5.79966
614.744	4.60766
614.938	2.93673
615.133	2.64965
615.328	5.99758
615.523	5.9328
615.717	7.8917
615.912	3.30977
616.107	4.3031
616.301	3.518
616.496	3.20168
616.691	6.73275
616.885	5.05918
617.08	7.14469
617.274	5.85133
617.469	7.48767
617.664	5.00164
617.858	3.60502
618.053	4.37079
618.247	3.93954
618.442	1.09789
618.636	5.95488
618.831	3.9782
619.025	3.75961
619.219	8.18285
619.414	-0.10564
619.608	4.35341
619.803	2.91134
619.997	7.18277
620.191	5.93414
620.386	4.9192
620.58	4.67622
620.774	2.21338
620.969	1.95316
621.163	4.55863
621.357	2.61985
621.551	4.12391
621.746	4.54437
621.94	4.66539
622.134	9.69788
622.328	7.46256
622.522	2.62652
622.716	6.17726
622.911	5.61853
623.105	5.66715
623.299	4.74663
623.493	9.64649
623.687	2.99998
623.881	4.35489
624.075	5.29987
624.269	6.10033
624.463	1.88393
624.657	2.31716
624.851	5.27724
625.045	5.68228
625.239	5.55321
625.433	3.37813
625.627	6.70586
625.821	2.95498
626.015	2.84627
626.209	3.91554
626.403	1.74376
626.596	4.4484
626.79	5.05923
626.984	2.39152
627.178	4.76318
627.372	4.56858
627.565	5.2201
627.759	2.35841
627.953	2.31716
628.147	4.8693
628.34	5.27714
628.534	6.91975
628.728	4.03884
628.921	5.96503
629.115	5.76134
629.309	5.63485
629.502	6.60757
629.696	4.95633
629.89	4.40065
630.083	4.82237
630.277	5.45285
630.47	7.62609
630.664	4.25235
630.857	2.76744
631.051	6.32402
631.244	6.82402
631.438	6.49756
631.631	3.57202
631.825	6.68642
632.018	5.80387
632.212	7.00878
632.405	6.87946
632.598	4.06721
632.792	4.96062
632.985	1.39805
633.178	3.87746
633.372	4.40599
633.565	4.71607
633.758	7.14854
633.952	3.40433
634.145	3.99402
634.338	4.48977
634.531	3.90016
634.724	3.52929
634.918	4.97032
635.111	4.39918
635.304	3.75316
635.497	8.88392
635.69	5.16016
635.883	6.70953
636.077	2.90067
636.27	5.23909
636.463	5.60937
636.656	5.76549
636.849	3.78559
637.042	5.6349
637.235	8.69742
637.428	6.46435
637.621	6.36188
637.814	7.89417
638.007	8.07863
638.2	8.64693
638.393	8.40337
638.586	3.5939
638.778	4.36703
638.971	6.46529
639.164	9.19797
639.357	6.43823
639.55	8.14608
639.743	6.76141
639.935	6.81176
640.128	9.69293
640.321	6.8876
640.514	5.99695
640.707	10.92632
640.899	7.39702
641.092	3.45677
641.285	22.37388
641.477	1.80414
641.67	10.11878
641.863	8.56277
642.055	6.23076
642.248	6.12196
642.441	5.27225
642.633	7.43538
642.826	8.07063
643.018	8.7121
643.211	9.90596
643.403	9.18312
643.596	10.60595
643.788	10.31348
643.981	5.03952
644.173	7.83708
644.366	5.23532
644.558	2.67342
644.751	7.94215
644.943	3.87841
645.135	10.17244
645.328	10.42306
645.52	7.81313
645.712	8.08762
645.905	14.05871
646.097	4.79247
646.289	7.81945
646.482	10.646
646.674	5.15539
646.866	8.67658
647.058	7.19548
647.251	4.62224
647.443	5.19368
647.635	6.26251
647.827	4.62415
648.019	4.61383
648.211	7.02542
648.404	7.47337
648.596	10.37596
648.788	7.60227
648.98	7.49546
649.172	7.90782
649.364	7.3164
649.556	3.06154
649.748	11.51576
649.94	4.70634
650.132	8.17686
650.324	5.09545
650.516	5.3848
650.708	9.16971
650.9	3.7425
651.092	6.2427
651.284	3.52557
651.476	3.69436
651.667	7.95891
651.859	9.56925
652.051	6.47033
652.243	6.48363
652.435	5.54763
652.627	7.78636
652.818	6.8079
653.01	3.34035
653.202	5.67033
653.394	5.94308
653.585	7.44362
653.777	17.26999
653.969	10.40719
654.16	10.24774
654.352	5.50748
654.544	5.97967
654.735	10.80304
654.927	7.09824
655.118	10.5201
655.31	9.56455
655.502	8.83543
655.693	5.69603
655.885	8.13243
656.076	11.0347
656.268	7.06495
656.459	10.82791
656.651	9.95782
656.842	5.85014
657.034	5.52942
657.225	8.81127
657.416	10.12403
657.608	9.67727
657.799	6.41942
657.99	8.71983
658.182	4.75374
658.373	5.17474
658.564	8.75446
658.756	6.04354
658.947	6.4171
659.138	4.12137
659.33	5.37914
659.521	4.26013
659.712	5.74448
659.903	5.87645
660.094	5.05989
660.286	3.29459
660.477	10.31638
660.668	7.8243
660.859	7.27916
661.05	3.67204
661.241	8.44969
661.432	7.8361
661.623	6.67519
661.814	5.92273
662.006	3.49389
662.197	8.33215
662.388	9.69542
662.579	7.86735
662.77	10.64098
662.96	15.15137
663.151	10.52166
663.342	3.71657
663.533	8.20743
663.724	7.21696
663.915	12.04648
664.106	7.27151
664.297	12.51772
664.488	9.05982
664.678	6.84937
664.869	9.5559
665.06	10.47094
665.251	8.80213
665.442	9.86207
665.632	5.64817
665.823	13.83288
666.014	1.67056
666.204	10.35957
666.395	11.27494
666.586	17.14713
666.776	10.38336
666.967	12.63367
667.158	7.91799
667.348	12.16208
667.539	5.16116
667.729	10.41912
667.92	5.94109
668.111	10.6434
668.301	9.95828
668.492	6.89571
668.682	7.80979
668.873	7.07004
669.063	5.02835
669.253	8.15053
669.444	11.36533
669.634	7.27067
669.825	13.55721
670.015	10.14265
670.206	6.82139
670.396	15.07116
670.586	7.83375
670.777	9.91717
670.967	2.62035
671.157	8.50588
671.347	5.88257
671.538	13.61876
671.728	10.03556
671.918	13.60369
672.108	10.99441
672.299	8.48722
672.489	8.69644
672.679	7.30358
672.869	10.71944
673.059	13.78797
673.249	10.98602
673.44	6.20283
673.63	7.98333
673.82	11.51572
674.01	6.72556
674.2	11.19954
674.39	17.91099
674.58	10.55727
674.77	9.91898
674.96	9.10742
675.15	22.06554
675.34	13.04679
675.53	9.61869
675.72	7.92309
675.91	4.74497
676.099	13.87961
676.289	16.82252
676.479	12.83717
676.669	7.90087
676.859	11.00992
677.049	6.64195
677.238	9.15962
677.428	13.56145
677.618	10.77284
677.808	13.50999
677.997	10.13693
678.187	5.69019
678.377	8.5244
678.567	8.1173
678.756	7.93385
678.946	6.96393
679.136	4.62756
679.325	6.39252
679.515	5.83906
679.704	4.18449
679.894	10.26408
680.084	8.70279
680.273	11.57249
680.463	6.00244
680.652	5.72021
680.842	8.23452
681.031	10.54892
681.221	5.47772
681.41	9.30424
681.6	7.58765
681.789	10.96327
681.978	11.87092
682.168	10.03916
682.357	10.05056
682.547	11.39018
682.736	9.81008
682.925	12.98515
683.115	12.5732
683.304	11.70674
683.493	10.43635
683.682	10.68007
683.872	11.4671
684.061	13.53731
684.25	11.86313
684.439	17.77071
684.629	11.61595
684.818	20.92231
685.007	9.8008
685.196	8.57542
685.385	16.48499
685.574	12.09915
685.763	10.07752
685.952	10.35896
686.142	7.04198
686.331	15.37657
686.52	4.07043
686.709	16.89827
686.898	16.57857
687.087	12.15211
687.276	16.00978
687.465	14.23939
687.654	9.70922
687.842	15.67863
688.031	5.72133
688.22	15.09258
688.409	11.03697
688.598	11.1748
688.787	20.07871
688.976	10.9169
689.165	19.07885
689.353	9.63612
689.542	12.34122
689.731	15.30789
689.92	18.98579
690.108	14.35515
690.297	10.8418
690.486	12.35496
690.675	13.97595
690.863	18.33406
691.052	17.0542
691.241	12.77874
691.429	12.75153
691.618	16.2693
691.806	7.52551
691.995	11.1321
692.184	11.4842
692.372	8.80335
692.561	12.13096
692.749	12.23351
692.938	22.66142
693.126	15.14201
693.315	12.74307
693.503	14.84894
693.692	14.66165
693.88	16.11984
694.068	20.77554
694.257	11.70458
694.445	14.39446
694.634	4.76318
694.822	17.34249
695.01	17.54543
695.199	19.74006
695.387	19.42079
695.575	18.13433
695.763	12.77752
695.952	11.2173
696.14	6.21429
696.328	9.01266
696.516	13.57702
696.705	12.95406
696.893	13.27368
697.081	5.54415
697.269	14.66523
697.457	8.75665
697.645	6.98614
697.833	14.32801
698.021	8.17472
698.21	9.63861
698.398	10.43724
698.586	6.37702
698.774	6.24286
698.962	9.91351
699.15	6.61005
699.338	5.1515
699.526	12.14851
699.714	7.98884
699.901	7.66864
700.089	13.52034
700.277	7.72412
700.465	10.31523
700.653	13.89076
700.841	12.492
701.029	7.92158
701.217	16.04502
701.404	12.53515
701.592	16.90493
701.78	22.04842
701.968	11.54167
702.155	11.05322
702.343	6.96342
702.531	18.01855
702.718	14.35182
702.906	12.56961
703.094	10.36328
703.281	18.52024
703.469	12.19664
703.657	17.97783
703.844	27.8486
704.032	21.19909
704.219	11.33669
704.407	15.20372
704.595	19.55686
704.782	14.89931
704.97	11.79415
705.157	12.58999
705.345	21.11013
705.532	27.09934
705.719	15.91054
705.907	20.84915
706.094	14.97734
706.282	22.76379
706.469	12.32713
706.656	14.6694
706.844	12.68834
707.031	19.11187
707.218	15.57339
707.406	21.20342
707.593	17.88994
707.78	17.45869
707.968	14.67228
708.155	9.77598
708.342	19.22171
708.529	18.57098
708.716	14.97293
708.904	22.33034
709.091	17.21252
709.278	9.66886
709.465	21.7169
709.652	22.72759
709.839	20.73022
710.026	17.84834
710.213	8.19695
710.4	16.37624
710.587	19.91136
710.774	23.28345
710.961	21.43624
711.148	16.02579
711.335	21.95212
711.522	15.5279
711.709	17.69267
711.896	25.4713
712.083	20.28111
712.27	11.36742
712.457	15.98017
712.644	9.00651
712.831	26.88919
713.017	16.3733
713.204	19.47201
713.391	13.04198
713.578	23.10985
713.765	24.10868
713.951	20.16219
714.138	34.6518
714.325	20.43104
714.512	16.75312
714.698	13.03429
714.885	24.48073
715.072	17.54624
715.258	17.59029
715.445	14.66816
715.631	23.64791
715.818	5.11927
716.005	13.7724
716.191	20.03875
716.378	14.18741
716.564	21.08591
716.751	13.90099
716.937	15.27869
717.124	24.13045
717.31	13.61071
717.497	27.10638
717.683	13.41597
717.869	30.8852
718.056	16.02392
718.242	21.21783
718.429	17.11034
718.615	10.53529
718.801	18.71451
718.988	23.6658
719.174	23.44646
719.36	17.10124
719.547	25.33629
719.733	22.19879
719.919	20.65498
720.105	24.62264
720.291	17.89311
720.478	22.10625
720.664	17.60089
720.85	15.18125
721.036	36.77974
721.222	30.3843
721.408	17.69991
721.595	31.05754
721.781	30.0684
721.967	27.18441
722.153	30.16569
722.339	23.85191
722.525	23.57038
722.711	15.84811
722.897	11.91239
723.083	19.02543
723.269	25.81146
723.455	37.54495
723.641	41.24639
723.827	22.5123
724.012	23.08265
724.198	19.4349
724.384	28.16519
724.57	20.47285
724.756	12.48974
724.942	9.86818
725.127	28.40771
725.313	28.64833
725.499	28.92229
725.685	34.87006
725.87	23.12327
726.056	15.24794
726.242	28.42059
726.428	11.7177
726.613	27.83749
726.799	18.31671
726.985	12.53432
727.17	13.0367
727.356	34.66206
727.541	15.29616
727.727	21.27154
727.913	25.21314
728.098	19.08727
728.284	26.81264
728.469	12.05936
728.655	15.66141
728.84	29.06529
729.026	25.09634
729.211	29.33751
729.397	23.20313
729.582	25.37215
729.767	20.07363
729.953	22.8541
730.138	29.63771
730.323	6.40303
730.509	14.6297
730.694	30.97073
730.879	24.20249
731.065	23.37619
731.25	36.44617
731.435	24.63314
731.621	12.78486
731.806	18.49532
731.991	23.70533
732.176	11.55849
732.361	30.76189
732.547	25.17734
732.732	10.11832
732.917	38.61618
733.102	13.52547
733.287	16.95207
733.472	22.31043
733.657	21.45311
733.842	12.19241
734.027	19.94521
734.212	18.27544
734.397	15.8209
734.582	21.05384
734.767	25.50107
734.952	32.32526
735.137	7.00488
735.322	32.43309
735.507	19.60012
735.692	24.34282
735.877	39.77166
736.062	38.54729
736.247	23.31875
736.431	20.42056
736.616	32.8978
736.801	25.69855
736.986	24.31112
737.171	17.93974
737.355	12.23913
737.54	31.70466
737.725	22.46294
737.909	45.34263
738.094	20.6028
738.279	29.02073
738.463	23.93627
738.648	29.26393
738.833	25.84207
739.017	40.86723
739.202	23.15192
739.386	24.30808
739.571	18.30862
739.756	31.4885
739.94	25.48706
740.125	33.67906
740.309	20.48729
740.494	29.17335
740.678	26.10885
740.863	30.88374
741.047	26.7224
741.231	36.10372
741.416	19.95763
741.6	35.51553
741.785	17.8276
741.969	32.29285
742.153	35.93765
742.338	7.04126
742.522	22.95817
742.706	31.16648
742.89	15.61894
743.075	29.50824
743.259	36.47461
743.443	34.76933
743.627	36.19963
743.812	48.57112
743.996	14.6942
744.18	25.81663
744.364	22.68099
744.548	49.38181
744.732	25.42274
744.916	30.83159
745.1	30.63893
745.285	24.40254
745.469	30.57445
745.653	44.17645
745.837	14.5753
746.021	45.87326
746.205	34.67782
746.389	28.42835
746.573	22.68989
746.757	39.02942
746.94	21.87454
747.124	35.86568
747.308	14.63565
747.492	36.05923
747.676	24.72847
747.86	45.08651
748.044	24.43501
748.227	11.50825
748.411	64.13629
748.595	34.12463
748.779	22.72188
748.963	32.79435
749.146	28.56624
749.33	21.29476
749.514	18.77584
749.697	36.23623
749.881	20.5003
750.065	17.7633
750.248	28.16125
750.432	50.51483
750.616	27.95364
750.799	14.84289
750.983	49.76949
751.166	53.78827
751.35	14.27401
751.533	38.4067
751.717	43.06629
751.9	42.64611
752.084	22.23223
752.267	14.64213
752.451	17.66157
752.634	28.81787
752.818	29.65378
753.001	37.54968
753.184	39.05263
753.368	29.03402
753.551	-0.00588
753.734	20.66919
753.918	49.5642
754.101	21.4473
754.284	34.47649
754.467	24.8185
754.651	20.85588
754.834	22.71209
755.017	40.4623
755.2	37.28122
755.384	16.62049
755.567	33.70874
755.75	37.56
755.933	24.41033
756.116	31.32449
756.299	23.0473
756.482	21.12418
756.665	36.2578
756.848	33.97094
757.032	32.97665
757.215	14.93425
757.398	21.70958
757.581	19.61113
757.764	53.91007
757.947	31.83992
758.129	43.53952
758.312	-0.13044
758.495	28.07654
758.678	25.69417
758.861	28.70706
759.044	51.4933
759.227	20.722
759.41	20.17465
759.592	34.46377
759.775	30.59411
759.958	36.22288
760.141	15.25378
760.324	49.43301
760.506	44.14542
760.689	35.92569
760.872	53.49365
761.054	34.17729
761.237	24.06823
761.42	32.63443
761.602	38.02416
761.785	32.15694
761.968	40.00438
762.15	48.06108
762.333	26.83453
762.515	31.43167
762.698	21.46914
762.88	33.90548
763.063	28.55344
763.245	36.59204
763.428	20.52713
763.61	20.65152
763.793	16.20294
763.975	29.20267
764.158	23.0395
764.34	21.30461
764.522	17.04949
764.705	22.87453
764.887	40.71889
765.069	14.78513
765.252	34.74889
765.434	38.26695
765.616	27.12678
765.799	21.53817
765.981	35.44185
766.163	18.63014
766.345	39.09227
766.528	22.2368
766.71	4.90628
766.892	31.98168
767.074	41.42464
767.256	26.2139
767.438	47.36742
767.62	33.84845
767.802	56.19731
767.985	39.58833
768.167	52.57001
768.349	24.84515
768.531	37.7058
768.713	32.21178
768.895	45.27449
769.077	34.61482
769.259	61.79995
769.441	87.81086
769.623	42.93249
769.804	53.73704
769.986	55.93276
770.168	66.3088
770.35	79.45865
770.532	58.84239
770.714	59.58732
770.896	67.80245
771.077	19.13025
771.259	65.80313
771.441	56.14044
771.623	69.69286
771.804	94.71224
771.986	20.64988
772.168	43.76426
772.35	66.25061
772.531	96.01429
772.713	53.41321
772.894	73.99119
773.076	55.94788
773.258	41.81706
773.439	73.66571
773.621	78.65244
773.802	30.93175
773.984	47.45906
774.166	57.65452
774.347	84.01873
774.529	68.97073
774.71	17.29039
774.891	43.19828
775.073	46.39479
775.254	85.14767
775.436	44.58958
775.617	96.31127
775.799	44.70125
775.98	80.32454
776.161	92.69996
776.343	85.35257
776.524	49.72335
776.705	45.11276
776.886	25.15192
777.068	53.18172
777.249	114.3636
777.43	92.14449
777.611	34.43074
777.793	54.79507
777.974	84.93985
778.155	49.35899
778.336	43.08382
778.517	92.60699
778.698	42.73714
778.879	17.80919
779.061	6.48903
779.242	61.23628
779.423	56.42669
779.604	38.56241
779.785	50.63636
779.966	63.7132
780.147	76.62845
780.328	76.59404
780.509	104.64745
780.69	70.17865
780.871	46.29502
781.051	22.77661
781.232	54.55011
781.413	61.34616
781.594	42.9028
781.775	43.98406
781.956	39.10956
782.137	18.35264
782.317	42.16191
782.498	67.30062
782.679	60.12549
782.86	58.44275
783.04	35.13416
783.221	61.78627
783.402	96.56489
783.583	58.1452
783.763	74.18705
783.944	48.51569
784.124	26.3751
784.305	89.80259
784.486	67.61633
784.666	47.26733
784.847	21.20005
785.027	113.23274
785.208	38.11001
785.388	37.74633
785.569	39.20891
785.749	50.15503
785.93	34.26959
786.11	24.91082
786.291	52.79377
786.471	63.52316
786.652	66.70908
786.832	51.6466
787.012	63.22943
787.193	31.38255
787.373	51.07629
787.553	44.81613
787.734	55.41098
787.914	39.82849
788.094	64.642
788.275	58.17469
788.455	45.07473
788.635	30.4239
788.815	56.40023
788.995	28.55476
789.176	29.64869
789.356	38.51147
789.536	43.91147
789.716	61.30508
789.896	37.45727
790.076	44.7316
790.256	58.42767
790.436	11.6736
790.616	32.05242
790.796	58.43335
790.976	43.11824
791.156	40.31611
791.336	67.65411
791.516	58.57243
791.696	46.0278
791.876	22.78274
792.056	59.91575
792.236	79.35902
792.416	68.12313
792.596	63.54785
792.776	59.1988
792.956	68.89013
793.135	89.54406
793.315	29.66574
793.495	81.55863
793.675	65.69406
793.854	74.51732
794.034	71.21497
794.214	30.88271
794.394	70.84388
794.573	74.62015
794.753	53.50419
794.933	41.55985
795.112	59.45288
795.292	71.10189
795.472	86.69908
795.651	32.04706
795.831	56.12353
796.01	43.7779
796.19	47.7314
796.369	41.90165
796.549	61.00635
796.728	46.03295
796.908	32.06349
797.087	32.62668
797.267	51.49795
797.446	30.22084
797.626	54.45233
797.805	60.01138
797.984	38.85146
798.164	61.56785
798.343	37.30291
798.522	59.01961
798.702	54.32724
798.881	29.31384
799.06	47.15482
799.239	13.28161
799.419	32.49119
799.598	84.9664
799.777	63.54274
799.956	73.15786
800.136	48.60451
800.315	39.57192
800.494	56.60273
800.673	71.76254
800.852	67.85858
801.031	77.04475
801.21	59.35879
801.389	38.70098
801.568	60.83697
801.747	91.32165
801.926	49.95657
802.105	89.65962
802.284	44.28487
802.463	82.87044
802.642	57.60317
802.821	59.59499
803	77.29998
803.179	71.10984
803.358	79.54181
803.537	37.59121
803.716	62.53233
803.895	39.74609
804.073	51.28758
804.252	42.26973
804.431	62.01089
804.61	56.96573
804.789	84.33312
804.967	48.05933
805.146	39.99901
805.325	99.92219
805.503	64.25171
805.682	25.50055
805.861	119.71401
806.039	85.36894
806.218	38.27689
806.397	62.76212
806.575	54.50409
806.754	60.74816
806.932	40.17569
807.111	86.34871
807.289	79.65014
807.468	58.93454
807.646	74.86026
807.825	58.12886
808.003	66.64186
808.182	78.73567
808.36	58.40662
808.539	37.9202
808.717	89.67343
808.895	39.88483
809.074	61.3638
809.252	47.21972
809.43	88.33766
809.609	87.34357
809.787	99.71132
809.965	49.62473
810.144	60.83277
810.322	46.0288
810.5	69.63824
810.678	62.96261
810.856	100.47499
811.035	81.87167
811.213	88.99015
811.391	73.29604
811.569	63.10598
811.747	142.49542
811.925	88.94848
812.103	45.22167
812.281	48.08567
812.459	113.11003
812.637	105.12611
812.816	93.9042
812.994	114.11402
813.171	86.50979
813.349	80.30212
813.527	96.90297
813.705	96.0364
813.883	105.67649
814.061	96.24198
814.239	108.08814
814.417	114.46105
814.595	81.61747
814.773	65.54048
814.95	64.90778
815.128	75.64306
815.306	58.75698
815.484	62.05345
815.662	50.19527
815.839	47.16281
816.017	56.16225
816.195	86.07948
816.372	53.91898
816.55	88.44723
816.728	106.11976
816.905	61.43229
817.083	99.09491
817.261	65.67205
817.438	138.41894
817.616	115.12885
817.793	46.07804
817.971	80.56402
818.148	80.35776
818.326	103.78351
818.503	70.83373
818.681	95.13976
818.858	51.55484
819.036	64.14039
819.213	65.00271
819.391	51.75096
819.568	41.7554
819.745	40.61335
819.923	71.78644
820.1	48.36635
820.277	43.37232
820.455	49.91397
820.632	52.41989
820.809	58.24207
820.986	30.39244
821.164	23.60631
821.341	17.6084
821.518	29.95928
821.695	20.4119
821.872	17.23712
822.05	14.37349
822.227	9.23234
822.404	10.43969
822.581	13.05563
822.758	9.8809
822.935	10.74774
823.112	12.79343
823.289	8.52785
823.466	12.78362
823.643	11.34544
823.82	15.32152
823.997	12.17139
824.174	16.74484
824.351	25.34807
824.528	22.38226
824.705	19.0817
824.882	21.86405
825.059	31.57674
825.236	20.96502
825.412	22.64125
825.589	29.93617
825.766	48.02266
825.943	24.69727
826.12	32.36185
826.296	18.72361
826.473	29.12266
826.65	26.5954
826.827	37.51483
827.003	22.28338
827.18	24.57925
827.357	29.22484
827.533	23.38794
827.71	10.63789
827.887	19.12542
828.063	26.24677
828.24	19.80552
828.416	30.88847
828.593	23.22729
828.769	37.65251
828.946	44.06552
829.122	40.59369
829.299	45.75512
829.475	16.63571
829.652	39.23609
829.828	69.54931
830.005	47.4286
830.181	61.07841
830.357	37.48555
830.534	65.90671
830.71	52.72615
830.886	69.57254
831.063	60.20229
831.239	82.05508
831.415	37.27152
831.592	100.98818
831.768	50.01527
831.944	44.78614
832.12	99.21049
832.296	88.99145
832.473	76.67889
832.649	47.98609
832.825	69.00816
833.001	35.43281
833.177	55.45819
833.353	51.42489
833.529	24.92182
833.705	41.39604
833.881	26.19926
834.058	23.4931
834.234	27.44818
834.41	30.1102
834.586	17.88022
834.761	25.94877
834.937	30.82116
835.113	31.50379
835.289	24.89538
835.465	36.03403
835.641	31.46073
835.817	32.98875
835.993	66.90382
836.169	27.51124
836.344	46.33139
836.52	57.76908
836.696	72.85019
836.872	36.74785
837.048	145.75045
837.223	47.59615
837.399	126.87372
837.575	98.2088
837.75	78.69341
837.926	124.97945
838.102	194.92886
838.277	151.89094
838.453	209.87295
838.628	207.77096
838.804	61.37787
838.98	199.62087
839.155	91.45393
839.331	123.35827
839.506	88.54195
839.682	78.96557
839.857	103.12356
840.033	126.33857
840.208	51.1789
840.384	25.53857
840.559	59.14686
840.734	94.91242
840.91	130.13282
841.085	86.69696
841.26	89.44439
841.436	78.704
841.611	67.52606
841.786	95.77072
841.962	162.80734
842.137	114.06291
842.312	51.44529
842.487	85.76445
842.663	84.43478
842.838	92.2214
843.013	284.44609
843.188	186.85256
843.363	124.89453
843.538	296.52354
843.714	321.96729
843.889	313.76649
844.064	299.87403
844.239	233.10751
844.414	468.18771
844.589	227.12187
844.764	385.38465
844.939	383.1221
845.114	379.86097
845.289	410.31463
845.464	481.27309
845.639	366.83225
845.814	163.01435
845.989	315.38702
846.163	225.87024
846.338	304.25176
846.513	406.99177
846.688	251.6308
846.863	282.89144
847.038	221.86616
847.212	295.68798
847.387	328.94609
847.562	277.9142
847.737	458.34196
847.911	195.25813
848.086	173.00258
848.261	395.30449
848.435	250.75526
848.61	361.61692
848.785	177.73572
848.959	402.61191
849.134	455.33048
849.308	652.16474
849.483	300.29697
849.658	533.98856
849.832	253.52061
850.007	218.75681
850.181	647.86996
850.356	282.85708
850.53	762.76083
850.705	356.53043
850.879	128.21
851.053	269.33976
851.228	277.59175
851.402	494.21777
851.577	460.82074
851.751	583.02379
851.925	349.70706
852.099	117.46703
852.274	243.3858
852.448	297.14476
852.622	462.31652
852.797	285.51048
852.971	325.66548
853.145	408.6599
853.319	729.98493
853.493	638.27064
853.668	504.17163
853.842	792.56283
854.016	494.62739
854.19	645.18908
854.364	361.05003
854.538	360.12189
854.712	708.67547
854.886	401.09255
855.06	271.91879
855.234	117.27903
855.408	603.89578
855.582	411.00978
855.756	599.11795
855.93	520.7809
856.104	639.71636
856.278	537.66821
856.452	359.66567
856.626	393.29992
856.8	887.45593
856.973	370.43815
857.147	450.82722
857.321	472.46388
857.495	498.39706
857.669	344.06388
857.842	428.48546
858.016	573.45372
858.19	228.90481
858.364	734.91349
858.537	381.54044
858.711	500.88904
858.885	365.38258
859.058	251.37879
859.232	166.04296
859.405	122.53034
859.579	463.74967
859.753	514.7763
859.926	240.95685
860.1	239.32055
860.273	376.81807
860.447	457.41012
860.62	348.08693
860.794	590.80712
860.967	326.99316
861.141	450.12453
861.314	755.15053
861.487	464.19755
861.661	477.97221
861.834	514.64289
862.008	662.00734
862.181	425.04286
862.354	527.00185
862.528	481.65365
862.701	289.47217
862.874	185.41555
863.047	301.65105
863.221	255.85049
863.394	186.1296
863.567	400.47709
863.74	122.97987
863.913	496.91055
864.087	497.98927
864.26	453.78225
864.433	328.61327
864.606	581.34319
864.779	338.94492
864.952	171.70449
865.125	409.94664
865.298	282.26228
865.471	318.61735
865.644	730.73268
865.817	476.06971
865.99	475.52805
866.163	437.38599
866.336	237.1467
866.509	334.70302
866.682	557.76461
866.855	691.74322
867.028	172.55487
867.2	381.45117
867.373	76.67297
867.546	350.85142
867.719	686.36108
867.892	448.35875
868.064	280.01909
868.237	304.03029
868.41	350.42525
868.583	148.44541
868.755	219.96816
868.928	401.53814
869.101	816.69501
869.273	528.70776
869.446	529.01958
869.619	517.73688
869.791	378.65291
869.964	486.04091
870.136	835.56863
870.309	313.30541
870.481	394.13742
870.654	221.82449
870.826	309.7267
870.999	219.49855
871.171	417.11583
871.344	224.5561
871.516	304.19688
871.689	228.99477
871.861	321.22292
872.033	257.88073
872.206	260.93975
872.378	320.10242
872.55	355.0971
872.723	194.33901
872.895	309.70718
873.067	415.4533
873.24	348.87288
873.412	330.40011
873.584	363.83882
873.756	342.81092
873.928	454.91331
874.101	349.52273
874.273	392.89683
874.445	134.06074
874.617	228.99673
874.789	297.66689
874.961	307.06222
875.133	354.67831
875.305	369.72166
875.477	266.08488
875.649	177.35159
875.821	188.99923
875.993	596.83287
876.165	321.80746
876.337	360.68072
876.509	312.59896
876.681	370.61264
876.853	334.63984
877.025	353.97043
877.197	226.28157
877.369	167.76759
877.541	330.08898
877.712	71.44835
877.884	168.87011
878.056	318.59238
878.228	173.90242
878.4	396.07234
878.571	152.1813
878.743	106.69679
878.915	274.30173
879.086	119.08281
879.258	179.2947
879.43	166.4615
879.601	136.49311
879.773	128.64188
879.945	24.07481
880.116	47.63575
880.288	26.81571
880.459	28.87306
880.631	19.91252
880.802	24.41326
880.974	21.70922
881.145	12.20377
881.317	19.79065
881.488	13.27872
881.66	15.63249
881.831	13.59827
882.002	21.7914
882.174	13.26189
882.345	18.95222
882.517	6.69998
882.688	25.3523
882.859	18.04046
883.03	35.18283
883.202	31.17428
883.373	23.03064
883.544	25.49574
883.715	50.06589
883.887	40.28773
884.058	30.29949
884.229	51.62722
884.4	50.30582
884.571	61.44733
884.742	46.67808
884.914	60.29982
885.085	92.71035
885.256	128.65064
885.427	114.80428
885.598	143.65013
885.769	142.68571
885.94	127.43301
886.111	74.07251
886.282	156.47781
886.453	147.41303
886.624	95.69624
886.795	197.75442
886.966	163.211
887.136	198.92303
887.307	174.4611
887.478	303.49221
887.649	247.03465
887.82	241.22863
887.991	209.92262
888.161	329.02441
888.332	329.66995
888.503	116.83164
888.674	352.84379
888.844	526.1116
889.015	315.26223
889.186	215.52293
889.356	477.95333
889.527	187.81644
889.698	655.6412
889.868	233.1338
890.039	408.09546
890.209	282.9579
890.38	388.91418
890.551	361.40921
890.721	383.50372
890.892	425.97336
891.062	410.85119
891.233	521.01626
891.403	456.86577
891.574	270.86587
891.744	238.92643
891.914	342.10901
892.085	358.84797
892.255	99.98803
892.425	429.81277
892.596	296.80973
892.766	389.39246
892.936	464.92761
893.107	386.51665
893.277	143.71401
893.447	172.99745
893.618	97.64657
893.788	176.37725
893.958	122.41475
894.128	85.58175
894.298	110.74205
894.468	151.65105
894.639	63.79702
894.809	34.42193
894.979	62.72037
895.149	77.93659
895.319	61.55268
895.489	99.08177
895.659	130.31549
895.829	73.52842
895.999	79.77583
896.169	65.14757
896.339	93.51122
896.509	182.34778
896.679	184.64857
896.849	202.93456
897.019	268.42651
897.189	223.84928
897.358	212.87734
897.528	334.10889
897.698	188.22654
897.868	316.49858
898.038	636.80538
898.208	578.25655
898.377	198.76762
898.547	981.88397
898.717	1350.68365
898.886	397.8734
899.056	606.78959
899.226	1469.05497
899.395	731.45897
899.565	1311.17759
899.735	835.18828
899.904	877.5558
900.074	1033.0114
900.244	265.81777
900.413	1280.7947
900.583	386.15953
900.752	1147.90191
900.922	965.26698
901.091	198.71557
901.261	1801.36336
901.43	485.8517
901.599	2282.4258
901.769	1384.78007
901.938	1086.69123
902.108	1519.42652
902.277	768.37519
902.446	372.15298
902.616	378.40997
902.785	581.81973
902.954	668.55482
903.124	499.77825
903.293	284.19984
903.462	116.96219
903.631	194.49681
903.801	140.34701
903.97	57.78787
904.139	110.07598
904.308	78.90948
904.477	62.55426
904.646	34.87862
904.816	52.31257
904.985	93.43664
905.154	132.25621
