Data from WindowProjectSample3_Transmission__37__00037.txt Node

Date: Sun May 04 10:39:17 EDT 2025
User: jessi
Spectrometer: SR400872
Trigger mode: 0
Integration Time (sec): 5.000050E-1
Scans to average: 20
Electric dark correction enabled: true
Nonlinearity correction enabled: true
Boxcar width: 0
XAxis mode: Wavelengths
Number of Pixels in Spectrum: 3648
>>>>>Begin Spectral Data<<<<<
184.909	-1113.4475
185.132	-1325.50451
185.355	-1459.44046
185.578	-984.37361
185.801	455.11414
186.024	-1048.40914
186.247	1179.61766
186.47	-1056.26137
186.693	-433.99772
186.916	-607.16713
187.139	-828.2142
187.362	-937.56845
187.585	-919.82648
187.808	-747.30616
188.031	2656.50577
188.254	-2245.14996
188.476	-1066.68914
188.699	-1147.20854
188.922	772.87534
189.145	-952.81169
189.368	-2438.75306
189.591	-1740.90071
189.813	-1443.08554
190.036	-1072.13443
190.259	-1110.29753
190.482	-1522.09407
190.705	-1935.93532
190.927	-841.97965
191.15	-1129.43515
191.373	-1557.19872
191.595	-1478.62771
191.818	-1528.6267
192.041	-872.93256
192.263	-1161.3994
192.486	-538.72619
192.709	-1301.64358
192.931	-2944.85832
193.154	-1322.4573
193.377	-1222.03899
193.599	-1932.35225
193.822	-1543.9386
194.044	-1483.1998
194.267	-1339.96101
194.489	-492.90871
194.712	-1266.26191
194.934	-1569.27221
195.157	-622.18448
195.379	-1386.57807
195.602	-796.63988
195.824	-1369.98122
196.047	-2127.89107
196.269	-1047.21823
196.492	-1313.18782
196.714	-727.97064
196.936	-1379.89254
197.159	-898.49594
197.381	-746.70698
197.604	-561.73617
197.826	-1422.93203
198.048	-1290.62104
198.271	-979.58299
198.493	-1143.71228
198.715	-830.43547
198.938	-1011.26088
199.16	-2771.01025
199.382	-1265.66311
199.604	-914.53948
199.827	-1104.9283
200.049	-1633.39702
200.271	-1094.4381
200.493	-2116.26756
200.715	-1036.42601
200.938	-846.10077
201.16	-934.79182
201.382	-4412.01461
201.604	-1711.02559
201.826	-770.05855
202.048	-789.2958
202.27	-2204.00876
202.492	-2131.60845
202.715	-2512.86942
202.937	-2480.82433
203.159	-1774.54095
203.381	-2691.74892
203.603	-1014.29405
203.825	-6421.69486
204.047	-1133.13137
204.269	-1783.7466
204.491	-1373.28275
204.713	-954.81627
204.935	-1128.06331
205.156	-1318.37313
205.378	-1365.54516
205.6	-944.17591
205.822	-977.26498
206.044	2294.17436
206.266	-2797.83256
206.488	-837.41111
206.71	-1864.91636
206.932	-1262.22885
207.153	-1014.84258
207.375	-811.68953
207.597	-1068.66658
207.819	-816.58257
208.041	-1475.81234
208.262	-2644.99204
208.484	-2475.31449
208.706	-2167.58665
208.927	-3131.35057
209.149	-1277.34433
209.371	-1171.41244
209.593	-9579.8787
209.814	-728.10722
210.036	-5042.99538
210.258	-1466.07431
210.479	-1275.59646
210.701	-2245.46157
210.922	-2601.63002
211.144	-2058.1349
211.366	-2399.69409
211.587	2974.74349
211.809	-1157.01548
212.03	-3287.70842
212.252	-3215.99386
212.473	-1030.11541
212.695	-1184.56547
212.916	-9151.42395
213.138	-7099.73784
213.359	-1032.46472
213.581	-2361.7276
213.802	-7241.41484
214.024	-1404.43399
214.245	93948.7082
214.466	2443.74078
214.688	-1204.38359
214.909	-780.85885
215.131	-2366.27403
215.352	-1760.72937
215.573	-1237.3555
215.795	-1360.4209
216.016	-2333.88505
216.237	3058.92669
216.459	-1781.85518
216.68	-2182.80508
216.901	-1053.33409
217.122	-1301.47066
217.344	-1175.3581
217.565	-1285.9654
217.786	-1229.66025
218.007	-1531.51232
218.228	-944.25357
218.45	-746.7068
218.671	-6182.44605
218.892	-1093.64121
219.113	-1988.39105
219.334	-110.43347
219.555	-1187.96432
219.776	-1051.0857
219.997	-1229.6336
220.219	-1052.16908
220.44	-1648.06029
220.661	-723.09686
220.882	-1468.79635
221.103	-3420.42331
221.324	-2307.93848
221.545	-2117.21207
221.766	-1127.20422
221.987	-2802.53329
222.208	-1104.86006
222.429	-935.35464
222.65	3942.04153
222.87	5662.95852
223.091	-2653.64138
223.312	-2554.82628
223.533	-2044.8277
223.754	-1142.74858
223.975	-3317.43032
224.196	-7898.55761
224.417	-1828.04273
224.637	1525.23104
224.858	178.79228
225.079	-2718.2783
225.3	3078.16663
225.521	-822.60325
225.741	29666.87261
225.962	-1903.68299
226.183	632.14449
226.404	-3798.78042
226.624	-5209.49807
226.845	9235.04238
227.066	-6232.81735
227.286	1283.52111
227.507	337.41454
227.728	369.60609
227.948	924.69554
228.169	221.34074
228.389	237.2646
228.61	134.66045
228.831	180.3857
229.051	13.72966
229.272	95.89013
229.492	135.01879
229.713	39.78058
229.933	90.48636
230.154	74.27906
230.374	134.36483
230.595	90.58479
230.815	54.30183
231.036	94.01473
231.256	-12.61478
231.477	164.38386
231.697	99.72899
231.917	94.02723
232.138	142.9098
232.358	327.37405
232.579	262.53703
232.799	38.99074
233.019	258.54337
233.24	308.42351
233.46	97.86652
233.68	166.88027
233.901	108.53239
234.121	68.52592
234.341	26.51307
234.561	-12.47868
234.782	96.38399
235.002	174.51967
235.222	-2.15805
235.442	153.40057
235.662	73.41088
235.883	152.13437
236.103	112.48492
236.323	91.69959
236.543	64.09643
236.763	98.71876
236.983	103.58327
237.203	96.24742
237.423	139.26607
237.643	218.41495
237.864	189.66925
238.084	45.11758
238.304	60.745
238.524	103.88451
238.744	92.14904
238.964	164.00665
239.184	141.08171
239.404	161.96053
239.624	77.86156
239.843	137.95914
240.063	78.86038
240.283	51.90891
240.503	58.03609
240.723	53.99173
240.943	33.79856
241.163	43.75776
241.383	29.58832
241.603	16.16584
241.822	19.9995
242.042	13.61011
242.262	17.06335
242.482	18.85835
242.702	20.87678
242.921	6.1704
243.141	13.77446
243.361	12.54913
243.581	18.28498
243.8	16.09538
244.02	10.66519
244.24	18.1503
244.459	16.46628
244.679	35.60202
244.899	22.33387
245.118	27.00725
245.338	24.34962
245.558	27.78963
245.777	16.21384
245.997	21.50488
246.216	21.11364
246.436	12.65285
246.655	9.24623
246.875	7.2285
247.094	12.63914
247.314	4.56897
247.533	7.63534
247.753	8.40103
247.972	6.56116
248.192	2.33159
248.411	3.92364
248.631	6.63041
248.85	8.16567
249.07	7.9524
249.289	11.73374
249.508	8.61294
249.728	11.97218
249.947	13.64375
250.166	17.15333
250.386	8.51568
250.605	13.12929
250.824	22.21952
251.044	13.9915
251.263	47.03075
251.482	28.18655
251.701	23.2703
251.921	-0.05926
252.14	7.40059
252.359	8.43583
252.578	19.77249
252.798	7.2867
253.017	17.24455
253.236	8.63197
253.455	11.40578
253.674	21.60887
253.893	9.62966
254.112	15.0337
254.331	21.75827
254.551	18.51138
254.77	9.93658
254.989	27.03856
255.208	21.57767
255.427	31.15466
255.646	26.2414
255.865	41.52896
256.084	16.91813
256.303	22.12031
256.522	27.51364
256.741	7.48985
256.96	6.80225
257.179	17.23197
257.397	21.58714
257.616	11.89906
257.835	14.78594
258.054	29.52227
258.273	20.27599
258.492	19.83119
258.711	12.62527
258.93	6.06097
259.148	8.9137
259.367	8.94864
259.586	11.41472
259.805	4.95948
260.023	9.22381
260.242	6.8805
260.461	5.25716
260.68	2.52035
260.898	7.66711
261.117	2.72257
261.336	1.70533
261.554	6.32831
261.773	6.36234
261.992	1.7982
262.21	6.32112
262.429	6.90904
262.648	12.94185
262.866	14.43415
263.085	10.69838
263.303	9.25
263.522	16.38324
263.74	15.924
263.959	27.67035
264.178	14.72301
264.396	12.85643
264.615	8.90691
264.833	20.44671
265.051	17.37536
265.27	20.2093
265.488	20.63081
265.707	11.99776
265.925	20.67233
266.144	9.83437
266.362	11.26297
266.58	12.10141
266.799	9.43203
267.017	11.4326
267.235	10.16705
267.454	6.97069
267.672	3.88082
267.89	7.97993
268.109	8.70215
268.327	8.26092
268.545	1.84602
268.763	8.05908
268.982	3.69887
269.2	9.20062
269.418	5.73956
269.636	4.63765
269.854	8.39762
270.073	5.76265
270.291	3.79776
270.509	3.87822
270.727	8.43272
270.945	13.87478
271.163	13.33652
271.381	3.37321
271.599	5.79762
271.817	9.67704
272.036	3.36922
272.254	6.74185
272.472	4.61702
272.69	4.45628
272.908	4.89971
273.126	7.29385
273.344	9.49018
273.562	3.52315
273.779	5.01552
273.997	8.11435
274.215	7.52038
274.433	5.48033
274.651	8.02702
274.869	7.99934
275.087	4.9666
275.305	7.64071
275.523	5.02912
275.74	5.68414
275.958	10.45519
276.176	14.81634
276.394	4.85382
276.612	6.2152
276.829	6.06037
277.047	5.79156
277.265	6.0592
277.483	6.45249
277.7	7.78433
277.918	6.72632
278.136	11.45264
278.353	5.49972
278.571	3.60967
278.789	8.82548
279.006	1.90546
279.224	5.80782
279.442	9.16171
279.659	6.89773
279.877	4.49576
280.094	9.6861
280.312	2.28526
280.529	6.49107
280.747	2.34437
280.964	5.56066
281.182	10.41658
281.399	5.92307
281.617	6.87473
281.834	4.90947
282.052	3.62776
282.269	6.17787
282.487	5.0999
282.704	4.44038
282.921	4.08587
283.139	6.13984
283.356	8.03149
283.574	7.29947
283.791	3.39392
284.008	9.4877
284.226	5.59367
284.443	6.28312
284.66	8.02739
284.877	7.21466
285.095	4.22524
285.312	3.08034
285.529	1.97172
285.746	1.67198
285.964	3.92377
286.181	2.69471
286.398	3.66652
286.615	5.01835
286.832	4.9435
287.05	1.29093
287.267	3.43017
287.484	3.45668
287.701	4.95415
287.918	4.60189
288.135	4.928
288.352	2.27187
288.569	2.55767
288.786	4.46979
289.003	3.67564
289.22	5.66974
289.437	3.27488
289.654	5.42365
289.871	5.54594
290.088	5.48684
290.305	4.29891
290.522	3.70014
290.739	3.83876
290.956	5.79218
291.173	6.72931
291.39	6.32274
291.607	4.30999
291.824	3.45391
292.04	2.69565
292.257	5.38622
292.474	5.90478
292.691	3.93544
292.908	1.9141
293.125	3.11169
293.341	2.10434
293.558	9.11425
293.775	4.15476
293.992	4.12313
294.208	1.89505
294.425	2.70031
294.642	3.3231
294.858	5.14461
295.075	1.3535
295.292	3.9888
295.508	4.52532
295.725	6.5431
295.942	3.19348
296.158	2.32469
296.375	3.87868
296.591	3.23395
296.808	3.07783
297.024	3.68868
297.241	4.15911
297.458	4.3431
297.674	0.54407
297.891	3.42744
298.107	2.77333
298.323	2.08796
298.54	4.81901
298.756	2.43805
298.973	1.10759
299.189	5.14178
299.406	2.32389
299.622	5.34396
299.838	5.38958
300.055	4.78565
300.271	1.25629
300.487	2.12002
300.704	2.27355
300.92	1.30871
301.136	7.03918
301.353	5.44999
301.569	3.79611
301.785	4.13185
302.001	4.72044
302.218	4.3021
302.434	4.489
302.65	1.43458
302.866	2.68084
303.083	7.43265
303.299	7.12242
303.515	3.66911
303.731	4.04786
303.947	1.40368
304.163	2.48794
304.379	4.08755
304.595	4.44137
304.812	2.68213
305.028	2.24613
305.244	2.99354
305.46	4.82134
305.676	4.81825
305.892	6.05068
306.108	4.28109
306.324	2.9994
306.54	6.64641
306.756	4.81399
306.972	4.47645
307.187	3.29926
307.403	6.40857
307.619	2.8308
307.835	5.57779
308.051	5.92831
308.267	1.96288
308.483	5.23144
308.699	4.45255
308.914	3.62751
309.13	3.77126
309.346	0.94334
309.562	1.79211
309.778	1.12014
309.993	4.50183
310.209	3.41934
310.425	1.71275
310.641	3.06043
310.856	1.87514
311.072	1.99231
311.288	3.5071
311.503	3.59094
311.719	0.85406
311.935	0.5201
312.15	3.94542
312.366	3.58647
312.581	4.08387
312.797	3.27506
313.013	4.656
313.228	2.39151
313.444	3.55992
313.659	2.12387
313.875	4.10142
314.09	3.47821
314.306	5.67185
314.521	4.86483
314.737	4.66394
314.952	4.06307
315.168	3.76695
315.383	4.25994
315.599	3.40233
315.814	3.25782
316.029	5.10626
316.245	1.53895
316.46	1.10002
316.675	5.99888
316.891	6.88708
317.106	8.41807
317.321	4.74384
317.537	4.51019
317.752	5.07339
317.967	4.92755
318.183	2.52692
318.398	3.38051
318.613	5.50409
318.828	6.09138
319.043	5.13512
319.259	3.38038
319.474	4.16229
319.689	5.90836
319.904	0.72353
320.119	5.2426
320.334	4.31501
320.549	3.47758
320.765	5.83236
320.98	4.26798
321.195	5.42365
321.41	3.57277
321.625	5.41464
321.84	6.97377
322.055	6.92466
322.27	2.6014
322.485	1.96408
322.7	4.24393
322.915	5.75326
323.13	2.52017
323.345	6.41063
323.56	5.14843
323.775	5.06625
323.989	4.811
324.204	4.21351
324.419	5.28215
324.634	1.70176
324.849	3.77325
325.064	7.06264
325.279	5.27402
325.493	4.67438
325.708	5.53332
325.923	2.62656
326.138	2.68422
326.352	6.40548
326.567	5.41929
326.782	3.38009
326.997	2.41175
327.211	4.92909
327.426	4.56577
327.641	3.20551
327.855	1.23912
328.07	4.67056
328.285	6.66449
328.499	3.55642
328.714	4.49642
328.928	5.37203
329.143	4.05894
329.358	5.73093
329.572	5.57946
329.787	6.27138
330.001	8.49977
330.216	1.8448
330.43	6.8316
330.645	6.93805
330.859	5.50354
331.074	2.89775
331.288	4.2476
331.503	6.39956
331.717	2.27944
331.931	3.98847
332.146	4.34784
332.36	7.40498
332.575	4.99841
332.789	4.45256
333.003	3.7616
333.218	4.87822
333.432	2.8947
333.646	5.12754
333.86	6.78231
334.075	7.23209
334.289	3.19206
334.503	2.39429
334.717	4.75145
334.932	4.60763
335.146	5.39558
335.36	3.00032
335.574	4.68032
335.788	4.23667
336.003	5.23217
336.217	5.11849
336.431	4.54347
336.645	3.17299
336.859	2.16972
337.073	4.04901
337.287	4.57143
337.501	2.79683
337.715	4.72191
337.929	5.308
338.143	2.33347
338.357	3.96334
338.571	2.58272
338.785	4.90755
338.999	3.15393
339.213	3.03295
339.427	1.73559
339.641	5.77862
339.855	3.36083
340.069	2.738
340.283	5.44386
340.497	6.50518
340.711	4.52043
340.924	3.46753
341.138	2.22192
341.352	1.55388
341.566	4.08311
341.78	1.06652
341.993	2.93176
342.207	2.25152
342.421	4.21127
342.635	3.58745
342.848	2.83182
343.062	0.43813
343.276	2.64345
343.49	7.12019
343.703	2.72265
343.917	5.0977
344.131	5.20209
344.344	2.71597
344.558	2.95901
344.771	2.27385
344.985	5.5886
345.199	6.31815
345.412	4.12248
345.626	4.24895
345.839	1.14725
346.053	2.0129
346.266	2.04398
346.48	4.78693
346.693	4.03948
346.907	4.27076
347.12	2.33406
347.334	4.15089
347.547	4.12868
347.76	3.16445
347.974	5.46813
348.187	4.1777
348.401	3.09627
348.614	2.71684
348.827	3.04717
349.041	4.38719
349.254	1.01545
349.467	3.45804
349.681	1.89827
349.894	2.87156
350.107	5.41743
350.32	6.62237
350.534	1.33212
350.747	3.24918
350.96	2.11614
351.173	2.56253
351.386	2.82191
351.6	2.79433
351.813	2.43112
352.026	3.43704
352.239	1.52037
352.452	2.7951
352.665	4.99331
352.878	3.24117
353.092	6.96743
353.305	4.5527
353.518	3.66571
353.731	2.40276
353.944	5.13951
354.157	2.546
354.37	2.19946
354.583	1.95931
354.796	1.07761
355.009	5.26994
355.222	3.50137
355.435	3.27849
355.647	4.9848
355.86	1.9347
356.073	3.26898
356.286	2.65217
356.499	4.40681
356.712	3.88308
356.925	3.80073
357.138	4.72925
357.35	1.85639
357.563	2.66863
357.776	3.34337
357.989	2.66454
358.201	3.98899
358.414	3.41073
358.627	4.61453
358.84	2.82842
359.052	1.55185
359.265	1.64094
359.478	4.6412
359.69	-0.53765
359.903	4.28678
360.116	4.18793
360.328	0.8227
360.541	4.13932
360.753	1.73078
360.966	2.13877
361.179	2.32885
361.391	2.13778
361.604	1.60225
361.816	2.1963
362.029	1.93145
362.241	1.54892
362.454	1.9804
362.666	1.70806
362.879	2.75128
363.091	2.23811
363.304	1.62972
363.516	2.63937
363.728	1.11507
363.941	3.51733
364.153	1.95202
364.366	-0.24879
364.578	1.38842
364.79	3.43955
365.003	2.6336
365.215	2.39389
365.427	3.39124
365.639	4.26753
365.852	3.07752
366.064	5.15107
366.276	2.05228
366.488	3.43563
366.701	2.30475
366.913	2.57769
367.125	2.66574
367.337	1.95414
367.549	2.14769
367.762	2.95701
367.974	2.93138
368.186	1.75948
368.398	4.09855
368.61	3.74962
368.822	3.88763
369.034	2.94365
369.246	3.53442
369.458	6.00509
369.67	1.39785
369.882	5.42548
370.094	0.29956
370.306	5.03349
370.518	2.42891
370.73	2.00155
370.942	1.78081
371.154	2.4805
371.366	2.1103
371.578	3.04808
371.79	1.6135
372.002	4.53298
372.214	5.08552
372.425	3.27555
372.637	4.66163
372.849	3.14262
373.061	-0.09964
373.273	3.47027
373.484	3.49619
373.696	3.87869
373.908	-0.1664
374.12	4.25632
374.331	3.33937
374.543	1.72504
374.755	1.49646
374.967	2.94155
375.178	3.86994
375.39	2.50133
375.602	2.89692
375.813	1.00067
376.025	0.9443
376.236	2.50971
376.448	2.82146
376.66	2.03956
376.871	1.88802
377.083	3.87377
377.294	3.93551
377.506	1.9848
377.717	4.32207
377.929	2.82089
378.14	1.53193
378.352	3.21402
378.563	3.20683
378.775	4.27851
378.986	1.82085
379.197	2.69117
379.409	1.95836
379.62	3.77248
379.832	2.84305
380.043	2.35792
380.254	2.99491
380.466	1.04671
380.677	6.21742
380.888	5.54061
381.1	6.09425
381.311	5.70356
381.522	2.692
381.733	6.58672
381.945	2.32786
382.156	2.96718
382.367	1.97271
382.578	6.28547
382.789	6.12423
383.001	2.11641
383.212	4.402
383.423	4.56196
383.634	4.13757
383.845	3.29875
384.056	2.18576
384.267	2.48629
384.478	2.53334
384.69	1.08334
384.901	3.43327
385.112	3.0744
385.323	4.55887
385.534	3.05329
385.745	2.83611
385.956	3.15057
386.167	1.46085
386.378	3.32913
386.588	0.99746
386.799	1.67745
387.01	0.40728
387.221	3.70017
387.432	2.4307
387.643	5.12057
387.854	2.19509
388.065	2.11249
388.275	2.28314
388.486	2.00386
388.697	2.45727
388.908	2.24889
389.119	4.09384
389.329	4.89439
389.54	2.69256
389.751	2.86831
389.962	4.20969
390.172	3.13079
390.383	1.74117
390.594	1.6054
390.804	1.72369
391.015	1.78584
391.226	2.48749
391.436	3.26154
391.647	2.90795
391.858	3.3182
392.068	0.4303
392.279	0.92047
392.489	2.46327
392.7	3.90635
392.91	1.05378
393.121	1.56169
393.331	2.96107
393.542	3.82858
393.752	3.18351
393.963	2.57716
394.173	2.45237
394.384	3.32021
394.594	2.36808
394.804	1.00133
395.015	2.59187
395.225	3.32382
395.436	1.10238
395.646	3.17245
395.856	1.28249
396.067	0.77844
396.277	3.80251
396.487	3.10136
396.697	2.54654
396.908	3.55168
397.118	3.51945
397.328	2.6983
397.538	3.81494
397.749	1.6599
397.959	3.64861
398.169	3.52106
398.379	0.99663
398.589	3.60774
398.8	2.75531
399.01	2.59414
399.22	2.17155
399.43	5.50418
399.64	2.14771
399.85	3.30525
400.06	2.307
400.27	1.84176
400.48	2.56761
400.69	4.46982
400.9	1.85915
401.11	1.63274
401.32	3.82679
401.53	1.89395
401.74	4.72437
401.95	3.64678
402.16	1.40908
402.37	3.29688
402.58	1.79138
402.79	3.61016
403	3.75366
403.209	1.92341
403.419	3.59611
403.629	2.03822
403.839	3.47276
404.049	3.66802
404.258	1.47981
404.468	1.29603
404.678	3.25282
404.888	3.17799
405.097	1.30333
405.307	2.33383
405.517	3.08832
405.727	2.741
405.936	2.0777
406.146	2.75352
406.356	4.08559
406.565	2.5296
406.775	1.89742
406.984	2.06654
407.194	4.6501
407.404	2.77643
407.613	3.00584
407.823	3.50994
408.032	4.13801
408.242	3.91843
408.451	2.0449
408.661	2.47683
408.87	5.12205
409.08	2.13212
409.289	3.24468
409.499	2.83029
409.708	2.89687
409.918	0.25536
410.127	2.69398
410.336	4.63783
410.546	3.50139
410.755	2.1413
410.964	2.07933
411.174	1.78818
411.383	3.52879
411.592	3.25138
411.802	1.50297
412.011	4.01017
412.22	2.89886
412.429	4.69485
412.639	4.31832
412.848	4.45785
413.057	4.88106
413.266	4.34816
413.475	2.81528
413.685	3.96371
413.894	4.01329
414.103	4.44493
414.312	3.78248
414.521	2.94914
414.73	3.18181
414.939	5.22076
415.148	3.61906
415.357	3.23175
415.566	2.40975
415.776	2.21337
415.985	2.10723
416.194	3.68496
416.403	4.62791
416.611	1.29436
416.82	1.96096
417.029	2.61231
417.238	1.73948
417.447	1.42788
417.656	1.83721
417.865	1.62927
418.074	1.81893
418.283	2.07361
418.492	2.95014
418.7	2.77653
418.909	3.56443
419.118	2.27609
419.327	2.44332
419.536	2.15412
419.744	1.37066
419.953	2.82536
420.162	2.78604
420.371	1.20975
420.579	0.82164
420.788	2.28493
420.997	2.09719
421.205	2.17556
421.414	1.72444
421.623	1.56186
421.831	1.25147
422.04	2.2461
422.249	1.08193
422.457	2.07904
422.666	1.29746
422.874	2.67018
423.083	2.6052
423.291	2.50664
423.5	1.91965
423.708	2.1401
423.917	2.53916
424.125	1.84658
424.334	1.49002
424.542	3.78711
424.751	2.70716
424.959	2.62224
425.167	2.92117
425.376	2.87536
425.584	2.1347
425.793	2.63032
426.001	1.53027
426.209	3.08496
426.418	1.77713
426.626	2.13986
426.834	1.80926
427.042	2.62892
427.251	1.99221
427.459	3.49524
427.667	3.05379
427.875	1.64445
428.084	2.29616
428.292	4.0359
428.5	3.10214
428.708	1.93783
428.916	1.91056
429.124	2.97237
429.333	2.57497
429.541	2.59963
429.749	2.88861
429.957	2.71568
430.165	5.17526
430.373	1.6813
430.581	3.15224
430.789	4.22795
430.997	2.03312
431.205	2.25608
431.413	2.7899
431.621	2.39096
431.829	3.42018
432.037	2.34427
432.245	3.22576
432.453	2.95036
432.661	2.29254
432.869	4.66255
433.076	1.59581
433.284	2.47
433.492	2.94822
433.7	3.72951
433.908	2.06971
434.116	2.60637
434.323	2.71132
434.531	2.62831
434.739	3.08123
434.947	3.56602
435.154	3.31449
435.362	3.10367
435.57	2.6242
435.778	2.37979
435.985	3.2545
436.193	2.3508
436.401	3.96695
436.608	2.86281
436.816	2.43143
437.023	4.67118
437.231	4.69634
437.439	3.14613
437.646	3.41558
437.854	3.38213
438.061	3.52587
438.269	2.63404
438.476	3.49668
438.684	2.94738
438.891	2.28372
439.099	1.89848
439.306	1.16153
439.514	1.67616
439.721	2.74181
439.929	1.9677
440.136	2.93047
440.343	2.76178
440.551	2.11104
440.758	4.08439
440.965	3.06443
441.173	2.5999
441.38	1.86524
441.587	2.89934
441.795	2.02774
442.002	2.99726
442.209	2.99203
442.416	3.44416
442.624	3.27283
442.831	3.24504
443.038	2.31488
443.245	1.86943
443.452	2.39518
443.66	3.83062
443.867	1.99534
444.074	2.49354
444.281	2.09376
444.488	2.56689
444.695	2.56187
444.902	2.19782
445.109	3.06976
445.316	2.27909
445.523	1.9835
445.73	1.50798
445.937	2.4404
446.144	2.78819
446.351	2.44533
446.558	1.60309
446.765	2.83999
446.972	3.22436
447.179	2.03636
447.386	3.58643
447.593	2.05254
447.8	3.51825
448.007	2.19842
448.214	2.62749
448.42	2.1272
448.627	3.74233
448.834	2.58224
449.041	2.55949
449.248	2.59488
449.454	3.97052
449.661	5.06385
449.868	2.89635
450.075	2.50454
450.281	0.9889
450.488	2.02468
450.695	2.5005
450.901	2.22269
451.108	3.05425
451.315	4.14771
451.521	3.21333
451.728	4.03497
451.935	2.4526
452.141	2.96217
452.348	3.1004
452.554	2.95906
452.761	2.59641
452.967	4.58593
453.174	3.16933
453.38	3.30219
453.587	1.86316
453.793	3.11539
454	4.02397
454.206	5.24614
454.413	4.63755
454.619	3.45562
454.825	2.31078
455.032	3.77485
455.238	4.22865
455.445	2.0365
455.651	3.47823
455.857	1.45712
456.064	2.84384
456.27	3.02895
456.476	3.16372
456.682	1.82057
456.889	3.69993
457.095	3.86705
457.301	5.73679
457.507	3.30205
457.714	3.34719
457.92	2.99484
458.126	2.29888
458.332	2.65724
458.538	2.31954
458.744	2.2908
458.951	2.25396
459.157	3.91095
459.363	2.6985
459.569	2.17317
459.775	3.2481
459.981	1.60605
460.187	2.23925
460.393	2.96336
460.599	3.66183
460.805	2.64083
461.011	2.77904
461.217	3.65768
461.423	3.97694
461.629	2.71092
461.835	3.78256
462.041	2.89484
462.247	4.83053
462.453	3.12811
462.658	3.2963
462.864	4.14633
463.07	3.78895
463.276	3.74547
463.482	3.80621
463.688	4.57993
463.893	3.16304
464.099	3.16189
464.305	5.23882
464.511	3.09525
464.716	3.59733
464.922	4.03144
465.128	2.81415
465.333	5.47709
465.539	3.90844
465.745	3.04213
465.95	3.87036
466.156	6.27088
466.362	4.77711
466.567	3.28917
466.773	3.13922
466.978	5.2941
467.184	2.52549
467.389	1.28976
467.595	4.23766
467.8	2.46014
468.006	4.87251
468.211	4.67099
468.417	2.70092
468.622	4.1307
468.828	4.29111
469.033	3.74744
469.239	6.62542
469.444	3.03009
469.649	4.64801
469.855	3.35256
470.06	3.86771
470.266	2.54212
470.471	4.39267
470.676	4.15504
470.881	2.11978
471.087	4.3943
471.292	5.41481
471.497	2.37922
471.703	3.24131
471.908	2.96943
472.113	3.87838
472.318	4.49809
472.523	2.64607
472.729	4.0717
472.934	4.14069
473.139	3.25546
473.344	4.27606
473.549	4.83671
473.754	2.90754
473.959	5.71874
474.164	2.90185
474.369	3.72324
474.575	4.74418
474.78	3.8217
474.985	3.36479
475.19	1.99819
475.395	2.88021
475.6	3.56235
475.804	4.97688
476.009	3.47859
476.214	3.75935
476.419	3.05027
476.624	1.8137
476.829	2.64227
477.034	3.94802
477.239	2.49169
477.444	3.63592
477.648	3.69081
477.853	4.04269
478.058	2.91773
478.263	2.68778
478.468	2.10016
478.672	2.18891
478.877	4.16985
479.082	5.02983
479.287	3.55235
479.491	3.40343
479.696	1.89791
479.901	4.19772
480.105	3.87748
480.31	2.64962
480.515	2.91038
480.719	5.30765
480.924	2.37856
481.128	1.89352
481.333	2.9478
481.538	3.20687
481.742	2.25316
481.947	2.86145
482.151	2.75282
482.356	2.10551
482.56	2.49577
482.765	2.04021
482.969	2.55733
483.174	2.95169
483.378	3.47458
483.582	3.01425
483.787	3.58845
483.991	3.42672
484.196	3.59288
484.4	3.50715
484.604	3.98936
484.809	3.13378
485.013	3.36697
485.217	3.04977
485.422	2.67534
485.626	2.46987
485.83	2.36868
486.034	2.34725
486.239	2.40717
486.443	2.29201
486.647	2.01549
486.851	2.62936
487.055	2.85729
487.26	2.21617
487.464	2.58114
487.668	2.05757
487.872	1.82104
488.076	2.58147
488.28	2.28182
488.484	2.14174
488.688	2.13174
488.892	2.54094
489.096	2.45913
489.3	2.07263
489.504	2.28676
489.708	2.83625
489.912	2.93214
490.116	2.86566
490.32	1.82084
490.524	2.61634
490.728	2.36195
490.932	2.07014
491.136	1.57581
491.34	2.53806
491.544	2.56445
491.748	2.14072
491.951	2.25477
492.155	2.10584
492.359	2.3294
492.563	1.65045
492.767	1.71297
492.97	2.12437
493.174	1.87288
493.378	2.29882
493.582	1.81786
493.785	2.74125
493.989	2.98534
494.193	3.07678
494.396	2.82451
494.6	3.84004
494.804	3.1823
495.007	2.68127
495.211	2.48762
495.414	3.13826
495.618	3.12826
495.822	4.09103
496.025	3.02079
496.229	3.96552
496.432	2.00052
496.636	2.82166
496.839	2.47967
497.043	4.33742
497.246	2.91961
497.45	2.39461
497.653	2.46531
497.856	3.0331
498.06	1.58876
498.263	2.44319
498.467	2.01495
498.67	3.85394
498.873	3.32827
499.077	2.52584
499.28	2.52287
499.483	3.35795
499.686	3.73236
499.89	3.54283
500.093	3.76309
500.296	2.5142
500.499	4.43837
500.703	3.20776
500.906	3.17113
501.109	5.17452
501.312	3.34159
501.515	3.14451
501.719	3.59496
501.922	4.88701
502.125	3.75036
502.328	3.16893
502.531	2.03883
502.734	3.35076
502.937	1.24902
503.14	3.35094
503.343	1.9753
503.546	2.70944
503.749	2.44747
503.952	3.67409
504.155	2.1904
504.358	3.84523
504.561	2.96803
504.764	1.96263
504.967	2.91835
505.17	3.1717
505.373	4.65112
505.576	3.35086
505.778	3.94681
505.981	2.73543
506.184	4.35689
506.387	1.80155
506.59	4.94363
506.793	4.42399
506.995	3.73157
507.198	1.32068
507.401	3.22386
507.604	3.54508
507.806	2.07314
508.009	2.23082
508.212	3.32399
508.414	2.41977
508.617	2.13003
508.82	2.74034
509.022	3.69288
509.225	3.09462
509.427	1.19049
509.63	3.98204
509.833	2.80023
510.035	2.65629
510.238	1.36531
510.44	3.84052
510.643	0.69465
510.845	5.19472
511.048	3.40671
511.25	2.5017
511.453	2.84047
511.655	3.25157
511.858	2.4277
512.06	3.58636
512.262	2.87696
512.465	3.45284
512.667	2.11315
512.869	1.91325
513.072	3.1919
513.274	3.8323
513.476	3.3975
513.679	3.62452
513.881	1.9286
514.083	4.74103
514.286	2.28715
514.488	2.6703
514.69	2.22249
514.892	1.89396
515.094	3.29016
515.297	2.80571
515.499	3.21266
515.701	2.27146
515.903	4.60502
516.105	4.52251
516.307	3.68998
516.509	1.09193
516.711	1.77794
516.913	3.0473
517.116	2.6187
517.318	2.25526
517.52	3.76535
517.722	3.08524
517.924	1.24853
518.126	2.71321
518.328	1.5898
518.529	2.72734
518.731	3.70246
518.933	1.66979
519.135	2.19775
519.337	3.19658
519.539	2.67185
519.741	1.02061
519.943	2.3874
520.145	2.36337
520.346	2.83792
520.548	2.25914
520.75	3.05838
520.952	2.44794
521.153	2.77528
521.355	3.22062
521.557	1.80698
521.759	3.27375
521.96	3.03735
522.162	2.14859
522.364	3.95027
522.565	2.39187
522.767	3.63554
522.969	4.44964
523.17	3.39996
523.372	3.61877
523.573	1.88845
523.775	2.7062
523.977	1.97787
524.178	4.39408
524.38	2.09357
524.581	3.35001
524.783	2.20908
524.984	3.02423
525.186	2.30371
525.387	2.95141
525.589	2.18749
525.79	1.91976
525.991	1.37158
526.193	2.32318
526.394	0.83112
526.596	2.2248
526.797	1.83391
526.998	1.60426
527.2	0.67989
527.401	2.07837
527.602	1.43138
527.803	2.37524
528.005	1.52308
528.206	1.8717
528.407	1.89139
528.608	1.48476
528.81	1.51052
529.011	0.99103
529.212	2.06106
529.413	1.62324
529.614	1.50201
529.815	1.93506
530.017	1.83898
530.218	1.85383
530.419	1.57207
530.62	2.01837
530.821	2.16661
531.022	1.24328
531.223	2.63525
531.424	2.73996
531.625	2.38368
531.826	2.39041
532.027	2.07021
532.228	2.9683
532.429	1.88331
532.63	1.57712
532.831	1.59298
533.032	1.7243
533.233	1.97407
533.433	1.80668
533.634	1.98524
533.835	1.48267
534.036	1.21098
534.237	1.70708
534.438	1.58388
534.638	1.41811
534.839	1.48211
535.04	2.6634
535.241	1.85986
535.441	3.39201
535.642	2.6009
535.843	1.42706
536.043	1.24793
536.244	1.79616
536.445	1.7448
536.645	2.97068
536.846	1.99695
537.047	3.16661
537.247	1.49767
537.448	2.07769
537.648	2.2243
537.849	2.3797
538.049	2.38744
538.25	3.39444
538.451	2.86252
538.651	1.9985
538.851	3.24476
539.052	3.85042
539.252	3.45913
539.453	2.81028
539.653	2.41963
539.854	2.7356
540.054	2.09316
540.254	2.94143
540.455	2.63704
540.655	1.48677
540.855	1.71983
541.056	1.88364
541.256	1.2311
541.456	2.18972
541.657	1.20852
541.857	2.28069
542.057	0.90749
542.257	1.1075
542.458	2.03129
542.658	2.49697
542.858	1.13906
543.058	2.87657
543.258	2.45269
543.458	1.42715
543.659	1.13483
543.859	2.92401
544.059	2.77442
544.259	2.34817
544.459	3.08909
544.659	1.93412
544.859	3.10855
545.059	2.09065
545.259	3.07263
545.459	2.81428
545.659	3.38148
545.859	2.84283
546.059	2.94935
546.259	1.83076
546.459	1.03482
546.659	1.6887
546.859	3.03374
547.059	3.14082
547.258	3.13236
547.458	2.92171
547.658	1.57428
547.858	1.94637
548.058	3.17717
548.258	2.91151
548.457	2.19991
548.657	6.17813
548.857	2.97758
549.057	4.44049
549.256	3.96967
549.456	3.55074
549.656	1.57116
549.855	6.06456
550.055	3.70757
550.255	5.9649
550.454	4.57759
550.654	5.21279
550.853	5.6826
551.053	5.30356
551.253	4.6009
551.452	4.50295
551.652	2.41984
551.851	1.64608
552.051	3.41264
552.25	3.2059
552.45	2.74954
552.649	3.32111
552.849	2.47971
553.048	3.73187
553.248	4.26999
553.447	2.70519
553.646	4.83928
553.846	5.4684
554.045	4.98205
554.244	2.84536
554.444	6.3387
554.643	3.3032
554.842	5.89889
555.042	6.84935
555.241	3.84466
555.44	3.36411
555.64	3.98859
555.839	6.33487
556.038	5.08246
556.237	3.80627
556.436	4.05899
556.636	4.8698
556.835	3.37616
557.034	6.22726
557.233	4.31166
557.432	3.13429
557.631	5.79446
557.83	4.10372
558.029	3.76842
558.228	4.26965
558.427	3.10721
558.626	5.16607
558.825	3.60679
559.024	5.08331
559.223	6.76762
559.422	4.46714
559.621	5.22019
559.82	1.55001
560.019	4.83715
560.218	3.92952
560.417	0.89123
560.616	4.09135
560.815	8.88867
561.014	2.54747
561.212	5.56557
561.411	4.7647
561.61	2.3067
561.809	4.07006
562.008	6.61996
562.206	4.45216
562.405	5.13665
562.604	4.39231
562.803	4.71415
563.001	4.58316
563.2	2.67758
563.399	5.27434
563.597	2.88819
563.796	5.03367
563.995	2.70749
564.193	5.42755
564.392	3.69115
564.59	7.60405
564.789	1.80512
564.988	4.05183
565.186	4.46435
565.385	3.87921
565.583	3.40052
565.782	3.76897
565.98	3.43364
566.179	3.8199
566.377	2.18485
566.575	2.58352
566.774	5.06452
566.972	4.93785
567.171	6.56237
567.369	5.54623
567.567	3.99679
567.766	4.66716
567.964	1.53049
568.162	5.17573
568.361	5.60189
568.559	4.47146
568.757	5.00962
568.956	4.8431
569.154	4.27382
569.352	5.75633
569.55	4.30186
569.748	4.32699
569.947	3.22273
570.145	3.37828
570.343	2.68847
570.541	6.06665
570.739	2.30648
570.937	4.46874
571.135	4.63304
571.333	6.37523
571.532	6.15505
571.73	4.40784
571.928	5.31513
572.126	4.71836
572.324	3.46643
572.522	5.7131
572.72	7.34071
572.918	3.96386
573.116	4.26801
573.313	4.23265
573.511	3.82909
573.709	4.02525
573.907	4.77086
574.105	3.79976
574.303	1.99846
574.501	2.4306
574.699	4.50742
574.896	4.51357
575.094	5.19975
575.292	2.70654
575.49	5.29443
575.688	4.1194
575.885	6.2924
576.083	6.7987
576.281	4.82508
576.478	4.0056
576.676	5.28892
576.874	3.28261
577.071	4.31761
577.269	8.11385
577.467	4.27809
577.664	5.32711
577.862	5.98655
578.059	4.35784
578.257	6.39251
578.455	4.91462
578.652	5.19443
578.85	2.89156
579.047	5.36496
579.245	5.2526
579.442	5.58719
579.64	5.59786
579.837	2.63853
580.034	8.78021
580.232	4.9473
580.429	4.10114
580.627	6.49059
580.824	7.79029
581.021	6.43911
581.219	5.18293
581.416	4.27039
581.613	8.00449
581.811	7.72553
582.008	4.5174
582.205	7.44384
582.402	6.31794
582.6	9.20412
582.797	6.15281
582.994	7.13349
583.191	7.22538
583.388	6.25635
583.586	7.32451
583.783	8.09363
583.98	4.48051
584.177	6.27742
584.374	1.50122
584.571	5.88159
584.768	6.07859
584.965	5.95305
585.162	7.30422
585.359	9.04105
585.556	5.9756
585.753	7.03693
585.95	4.15179
586.147	5.00266
586.344	6.9772
586.541	5.90387
586.738	4.23743
586.935	6.26463
587.132	4.87585
587.329	8.0623
587.526	6.03066
587.722	14.68626
587.919	3.72884
588.116	7.09819
588.313	8.84055
588.51	9.93065
588.706	5.92802
588.903	6.99698
589.1	8.12114
589.297	11.12322
589.493	5.77444
589.69	7.17723
589.887	5.08516
590.083	4.07554
590.28	4.86387
590.477	7.82997
590.673	7.22625
590.87	8.47633
591.067	5.66786
591.263	7.34879
591.46	7.23313
591.656	6.07733
591.853	9.33597
592.049	4.81626
592.246	5.55971
592.442	8.83831
592.639	7.89182
592.835	4.02886
593.032	7.55669
593.228	4.04923
593.425	3.93465
593.621	3.9954
593.817	6.46656
594.014	5.14791
594.21	6.39147
594.406	8.01674
594.603	6.87186
594.799	5.43353
594.995	2.16948
595.192	7.79278
595.388	5.20831
595.584	5.02557
595.78	3.31599
595.977	9.49694
596.173	8.88358
596.369	5.47411
596.565	4.08598
596.761	3.17897
596.957	7.57791
597.154	4.06047
597.35	4.52624
597.546	4.00747
597.742	6.07824
597.938	6.07988
598.134	4.16036
598.33	5.88395
598.526	8.41747
598.722	7.13034
598.918	9.43279
599.114	7.43138
599.31	5.2049
599.506	7.20637
599.702	5.43832
599.898	7.60967
600.094	8.93463
600.29	8.58666
600.485	8.65515
600.681	6.58121
600.877	10.22362
601.073	7.1917
601.269	10.83002
601.465	9.79659
601.66	5.76989
601.856	3.78297
602.052	9.97253
602.248	6.0415
602.443	2.75517
602.639	4.5695
602.835	4.65376
603.03	5.08132
603.226	7.67575
603.422	4.33845
603.617	5.38608
603.813	4.98326
604.009	4.62983
604.204	7.39903
604.4	2.73946
604.595	6.93202
604.791	3.56085
604.986	5.80571
605.182	4.04297
605.377	4.52803
605.573	4.51148
605.768	5.66739
605.964	6.41127
606.159	7.24865
606.355	8.38262
606.55	5.79572
606.746	8.14207
606.941	6.63626
607.136	10.49284
607.332	12.20386
607.527	4.53559
607.722	7.71644
607.918	6.51528
608.113	5.14725
608.308	7.92957
608.503	7.76783
608.699	7.22938
608.894	7.35377
609.089	4.68406
609.284	6.73787
609.479	5.11483
609.675	7.14004
609.87	5.172
610.065	6.87615
610.26	7.87887
610.455	7.68632
610.65	5.90265
610.845	6.79518
611.04	8.44617
611.235	6.39238
611.43	6.10347
611.625	4.77468
611.82	9.56024
612.015	5.47812
612.21	10.26046
612.405	4.44124
612.6	11.75494
612.795	10.39899
612.99	9.25688
613.185	5.36197
613.38	5.9101
613.575	8.70545
613.77	13.44828
613.965	4.93062
614.159	6.01381
614.354	10.60165
614.549	10.33231
614.744	9.50238
614.938	5.90423
615.133	5.24884
615.328	10.75335
615.523	11.09433
615.717	14.6446
615.912	7.04356
616.107	8.36618
616.301	7.46527
616.496	6.46525
616.691	12.37139
616.885	9.72931
617.08	13.5969
617.274	11.26679
617.469	13.81248
617.664	10.04826
617.858	6.74522
618.053	8.84219
618.247	7.75922
618.442	3.92522
618.636	11.68183
618.831	7.06531
619.025	7.64862
619.219	14.70066
619.414	1.06696
619.608	8.6478
619.803	6.32503
619.997	13.59071
620.191	11.59923
620.386	9.94263
620.58	9.22639
620.774	4.77329
620.969	5.18943
621.163	9.34771
621.357	5.46769
621.551	7.94678
621.746	9.32474
621.94	9.30479
622.134	17.62303
622.328	13.71876
622.522	5.26497
622.716	11.95313
622.911	10.81104
623.105	11.06578
623.299	9.54573
623.493	17.16014
623.687	6.69404
623.881	8.07703
624.075	10.80622
624.269	11.84354
624.463	4.66422
624.657	5.04093
624.851	10.31017
625.045	11.28054
625.239	11.17496
625.433	6.897
625.627	12.50953
625.821	7.26267
626.015	6.55355
626.209	8.47186
626.403	4.87517
626.596	9.06631
626.79	10.00409
626.984	4.99506
627.178	9.16938
627.372	9.09728
627.565	9.84144
627.759	4.44049
627.953	4.73948
628.147	9.08486
628.34	9.91244
628.534	12.95039
628.728	8.11958
628.921	11.09928
629.115	10.47454
629.309	10.87468
629.502	11.64883
629.696	9.64383
629.89	8.85295
630.083	9.77558
630.277	10.71948
630.47	14.16223
630.664	8.7876
630.857	6.02691
631.051	11.37184
631.244	12.83693
631.438	12.70275
631.631	7.93983
631.825	13.02172
632.018	11.87718
632.212	14.83552
632.405	12.91184
632.598	8.02471
632.792	10.55966
632.985	3.77539
633.178	8.42602
633.372	9.91548
633.565	10.00243
633.758	13.12979
633.952	7.17699
634.145	7.73692
634.338	9.33713
634.531	8.29939
634.724	7.77558
634.918	10.05036
635.111	9.13164
635.304	8.39028
635.497	14.99047
635.69	10.65381
635.883	12.588
636.077	6.33239
636.27	11.38728
636.463	10.40561
636.656	11.50759
636.849	8.78151
637.042	10.98134
637.235	15.09902
637.428	12.46325
637.621	11.64514
637.814	14.64117
638.007	15.33149
638.2	16.07307
638.393	17.38856
638.586	7.77936
638.778	9.70192
638.971	11.02995
639.164	16.32542
639.357	12.61419
639.55	15.08828
639.743	13.67749
639.935	13.80546
640.128	17.73008
640.321	13.73459
640.514	11.95362
640.707	19.71211
640.899	14.00741
641.092	7.03368
641.285	34.63045
641.477	5.08573
641.67	19.11395
641.863	15.79948
642.055	12.43571
642.248	12.28541
642.441	11.23847
642.633	13.42202
642.826	17.49274
643.018	16.76343
643.211	18.1131
643.403	17.52691
643.596	19.93257
643.788	18.87115
643.981	10.89978
644.173	15.55483
644.366	11.59892
644.558	7.39103
644.751	15.57192
644.943	8.11782
645.135	19.6496
645.328	19.2576
645.52	16.01599
645.712	15.71782
645.905	25.05239
646.097	9.69445
646.289	14.35375
646.482	19.48135
646.674	11.43532
646.866	16.40851
647.058	15.27372
647.251	9.49673
647.443	11.37383
647.635	12.6934
647.827	9.27424
648.019	9.40505
648.211	13.77766
648.404	13.8838
648.596	18.96475
648.788	14.87068
648.98	14.49987
649.172	14.90157
649.364	14.85396
649.556	7.44779
649.748	22.18597
649.94	11.54883
650.132	15.40334
650.324	10.71563
650.516	11.26544
650.708	17.7324
650.9	8.63775
651.092	7.62804
651.284	7.99586
651.476	9.21426
651.667	15.57838
651.859	18.2927
652.051	13.07844
652.243	13.61727
652.435	11.4961
652.627	14.48154
652.818	14.91778
653.01	7.61775
653.202	10.59739
653.394	12.5032
653.585	15.34841
653.777	30.31045
653.969	18.97137
654.16	17.71532
654.352	10.2934
654.544	14.07987
654.735	18.83136
654.927	14.03269
655.118	20.50632
655.31	17.79574
655.502	17.92413
655.693	12.23539
655.885	16.8972
656.076	20.25398
656.268	15.1755
656.459	19.38335
656.651	19.56179
656.842	12.50857
657.034	11.60497
657.225	17.09406
657.416	19.66443
657.608	19.90395
657.799	13.36386
657.99	17.84104
658.182	10.44533
658.373	11.423
658.564	16.33614
658.756	13.00486
658.947	12.43523
659.138	9.17216
659.33	10.40426
659.521	9.15763
659.712	11.72069
659.903	11.47487
660.094	10.17273
660.286	6.72413
660.477	19.34044
660.668	15.07972
660.859	13.37122
661.05	8.42141
661.241	15.70425
661.432	15.97825
661.623	12.79914
661.814	11.78576
662.006	7.75011
662.197	16.73006
662.388	18.94189
662.579	16.34855
662.77	21.04795
662.96	26.05887
663.151	18.70612
663.342	8.55875
663.533	17.66446
663.724	14.64878
663.915	22.57242
664.106	15.33175
664.297	24.46021
664.488	19.3078
664.678	14.13462
664.869	18.43015
665.06	19.45281
665.251	17.7443
665.442	19.358
665.632	12.73365
665.823	24.92034
666.014	4.24055
666.204	18.92337
666.395	23.03994
666.586	29.3546
666.776	20.61956
666.967	24.62497
667.158	16.74277
667.348	23.54763
667.539	11.57667
667.729	20.56307
667.92	12.84348
668.111	22.05016
668.301	20.38578
668.492	15.22639
668.682	16.5433
668.873	15.6016
669.063	11.35189
669.253	16.62573
669.444	20.3569
669.634	16.17734
669.825	24.99899
670.015	21.15892
670.206	13.26696
670.396	26.38453
670.586	16.14378
670.777	18.89418
670.967	7.9648
671.157	16.61377
671.347	14.46605
671.538	24.50582
671.728	19.01816
671.918	26.05638
672.108	23.14907
672.299	17.44867
672.489	19.98533
672.679	14.66119
672.869	21.25394
673.059	25.901
673.249	20.45257
673.44	13.66482
673.63	17.30361
673.82	22.55849
674.01	14.18736
674.2	20.59105
674.39	33.308
674.58	21.20357
674.77	19.39621
674.96	18.48036
675.15	39.83204
675.34	24.22607
675.53	18.87616
675.72	16.44352
675.91	11.7341
676.099	28.25024
676.289	29.36204
676.479	23.54712
676.669	17.41503
676.859	21.91066
677.049	14.13009
677.238	19.45206
677.428	28.30729
677.618	17.60864
677.808	23.48571
677.997	21.33091
678.187	12.95401
678.377	18.19133
678.567	16.20724
678.756	16.31726
678.946	16.63873
679.136	11.16527
679.325	13.13107
679.515	13.13644
679.704	10.70485
679.894	19.62457
680.084	17.9651
680.273	23.07255
680.463	12.18377
680.652	12.43801
680.842	15.83564
681.031	20.56157
681.221	11.91744
681.41	18.85644
681.6	16.09466
681.789	20.69937
681.978	23.36797
682.168	18.61933
682.357	19.89542
682.547	21.12903
682.736	18.90973
682.925	24.22598
683.115	23.38308
683.304	22.17831
683.493	20.86515
683.682	22.23568
683.872	21.20416
684.061	26.79721
684.25	24.01301
684.439	30.38931
684.629	24.4204
684.818	39.55921
685.007	19.88474
685.196	18.90901
685.385	28.58167
685.574	23.86382
685.763	22.76608
685.952	21.20209
686.142	14.16981
686.331	29.9117
686.52	11.52404
686.709	30.2333
686.898	30.25578
687.087	25.15748
687.276	31.10436
687.465	27.58578
687.654	19.10597
687.842	30.89893
688.031	13.46779
688.22	28.5706
688.409	23.17512
688.598	23.21002
688.787	36.05541
688.976	23.02067
689.165	33.42323
689.353	20.12565
689.542	25.88413
689.731	26.36232
689.92	34.36498
690.108	28.80432
690.297	20.25631
690.486	23.12704
690.675	27.4378
690.863	34.02878
691.052	33.49631
691.241	26.54188
691.429	25.34253
691.618	32.83663
691.806	17.16165
691.995	21.63422
692.184	24.39281
692.372	20.53278
692.561	24.22213
692.749	24.44114
692.938	39.42763
693.126	29.05184
693.315	22.13058
693.503	28.68092
693.692	29.62042
693.88	31.38087
694.068	39.83612
694.257	24.54419
694.445	28.5751
694.634	12.96349
694.822	33.22747
695.01	33.69507
695.199	33.65047
695.387	37.30762
695.575	34.08316
695.763	26.12097
695.952	24.18531
696.14	16.19072
696.328	21.94596
696.516	27.00661
696.705	26.52669
696.893	26.54862
697.081	14.2089
697.269	28.55767
697.457	17.8597
697.645	15.54523
697.833	28.71266
698.021	17.65546
698.21	18.3627
698.398	20.71517
698.586	14.01298
698.774	12.88881
698.962	18.24147
699.15	13.69462
699.338	11.19578
699.526	21.53329
699.714	15.58267
699.901	16.69176
700.089	24.95429
700.277	15.97159
700.465	19.17659
700.653	26.01484
700.841	25.55429
701.029	17.44506
701.217	30.68086
701.404	24.60423
701.592	33.74167
701.78	37.26138
701.968	21.12352
702.155	22.65576
702.343	18.19966
702.531	35.32034
702.718	30.05393
702.906	24.54923
703.094	22.63604
703.281	36.03859
703.469	25.62725
703.657	36.10051
703.844	53.64033
704.032	39.86713
704.219	23.16744
704.407	31.81771
704.595	37.66363
704.782	30.96782
704.97	25.7031
705.157	26.68942
705.345	42.6951
705.532	49.18306
705.719	32.75607
705.907	40.84872
706.094	32.13725
706.282	44.04493
706.469	28.41587
706.656	31.4948
706.844	28.98129
707.031	37.54938
707.218	31.44316
707.406	43.78497
707.593	39.47327
707.78	36.2642
707.968	29.0692
708.155	24.02225
708.342	35.55015
708.529	34.33983
708.716	32.91104
708.904	45.1928
709.091	35.48274
709.278	22.88756
709.465	45.87165
709.652	46.6135
709.839	42.24708
710.026	34.39143
710.213	18.55325
710.4	34.83524
710.587	37.93829
710.774	39.91292
710.961	40.7343
711.148	32.93067
711.335	41.65847
711.522	31.37586
711.709	33.9033
711.896	49.42275
712.083	40.54327
712.27	24.4775
712.457	33.42191
712.644	20.40229
712.831	49.67144
713.017	33.7558
713.204	38.32518
713.391	27.72885
713.578	44.01661
713.765	44.94796
713.951	37.55345
714.138	62.1703
714.325	39.98722
714.512	34.25167
714.698	28.4391
714.885	47.85525
715.072	37.55164
715.258	36.49593
715.445	28.88289
715.631	45.04832
715.818	13.61852
716.005	28.35534
716.191	39.31019
716.378	31.68672
716.564	42.39397
716.751	26.31726
716.937	28.99287
717.124	44.46851
717.31	28.27645
717.497	48.05718
717.683	28.64514
717.869	57.66926
718.056	32.31266
718.242	41.81644
718.429	37.60044
718.615	27.41181
718.801	36.61533
718.988	46.76015
719.174	42.79654
719.36	37.55253
719.547	50.85671
719.733	41.87334
719.919	39.28716
720.105	46.07962
720.291	38.0606
720.478	42.42867
720.664	37.04689
720.85	34.87536
721.036	71.42875
721.222	55.54072
721.408	37.93737
721.595	60.53511
721.781	60.01174
721.967	52.62593
722.153	58.32506
722.339	46.60586
722.525	45.9316
722.711	30.6326
722.897	27.56737
723.083	38.81763
723.269	54.04013
723.455	70.30135
723.641	74.8021
723.827	45.80971
724.012	48.91193
724.198	38.1387
724.384	57.61917
724.57	47.54313
724.756	27.57759
724.942	23.56642
725.127	53.65391
725.313	59.81426
725.499	59.66422
725.685	65.44762
725.87	49.1824
726.056	33.2251
726.242	58.47307
726.428	26.72271
726.613	54.95044
726.799	41.02437
726.985	32.41407
727.17	27.8002
727.356	62.41079
727.541	35.63565
727.727	40.7272
727.913	51.63912
728.098	37.23852
728.284	51.81696
728.469	30.40432
728.655	32.70886
728.84	52.82146
729.026	50.88984
729.211	55.7451
729.397	45.48732
729.582	51.23503
729.767	41.02311
729.953	46.80723
730.138	54.40747
730.323	20.15902
730.509	31.04229
730.694	61.97011
730.879	47.80348
731.065	44.47426
731.25	69.7188
731.435	49.74225
731.621	27.45195
731.806	35.62774
731.991	46.61128
732.176	25.91688
732.361	59.17916
732.547	44.96185
732.732	25.05122
732.917	69.30784
733.102	29.74459
733.287	35.14001
733.472	43.48581
733.657	44.03626
733.842	26.41448
734.027	39.60773
734.212	41.35114
734.397	34.02835
734.582	42.02822
734.767	50.67963
734.952	59.47916
735.137	16.31068
735.322	59.42782
735.507	48.13844
735.692	47.99547
735.877	73.34832
736.062	66.08087
736.247	50.15706
736.431	45.72631
736.616	61.98362
736.801	50.06664
736.986	47.87144
737.171	37.38242
737.355	34.74548
737.54	62.86542
737.725	46.87979
737.909	87.77337
738.094	41.44653
738.279	59.9314
738.463	45.19125
738.648	58.27773
738.833	52.59346
739.017	73.96514
739.202	43.33036
739.386	48.31652
739.571	37.5488
739.756	58.13867
739.94	49.18712
740.125	61.27756
740.309	37.41036
740.494	58.38588
740.678	51.00698
740.863	57.05738
741.047	52.12271
741.231	65.41445
741.416	37.15519
741.6	72.28627
741.785	40.5768
741.969	63.20451
742.153	68.703
742.338	23.39693
742.522	51.65919
742.706	61.50807
742.89	35.96906
743.075	51.3679
743.259	73.07616
743.443	61.46616
743.627	67.17891
743.812	87.55699
743.996	27.75826
744.18	51.10521
744.364	44.99913
744.548	92.05656
744.732	51.16755
744.916	64.48939
745.1	59.70415
745.285	47.74016
745.469	59.2971
745.653	80.14864
745.837	32.28155
746.021	94.06453
746.205	72.07037
746.389	54.68117
746.573	47.33854
746.757	80.58322
746.94	47.78868
747.124	76.35535
747.308	37.49892
747.492	75.9144
747.676	45.65292
747.86	97.03167
748.044	48.55893
748.227	27.66465
748.411	118.20784
748.595	58.15313
748.779	41.72963
748.963	61.42456
749.146	56.88643
749.33	43.29665
749.514	38.17418
749.697	74.31849
749.881	45.01813
750.065	38.85466
750.248	55.13878
750.432	94.72168
750.616	55.88099
750.799	33.76204
750.983	89.1826
751.166	104.34285
751.35	33.67796
751.533	63.97403
751.717	74.62974
751.9	85.20249
752.084	49.80783
752.267	41.04306
752.451	42.68577
752.634	56.99863
752.818	66.25619
753.001	70.26907
753.184	71.51036
753.368	62.857
753.551	7.86627
753.734	43.26914
753.918	94.24925
754.101	44.33683
754.284	67.11332
754.467	50.02742
754.651	43.23178
754.834	44.69512
755.017	75.03151
755.2	69.04778
755.384	37.71396
755.567	69.16821
755.75	73.08023
755.933	51.0937
756.116	61.42065
756.299	49.39772
756.482	43.69716
756.665	68.42781
756.848	57.41615
757.032	63.86259
757.215	35.64675
757.398	44.52722
757.581	46.94123
757.764	109.85565
757.947	59.71145
758.129	80.87798
758.312	15.91898
758.495	55.48289
758.678	54.53274
758.861	52.81256
759.044	95.33391
759.227	44.90207
759.41	45.75903
759.592	67.84458
759.775	54.63448
759.958	76.70288
760.141	36.48596
760.324	98.48575
760.506	85.66696
760.689	74.14343
760.872	105.24222
761.054	66.94395
761.237	53.47732
761.42	66.75604
761.602	75.18469
761.785	64.54373
761.968	76.45465
762.15	93.01607
762.333	57.52491
762.515	64.51939
762.698	47.9722
762.88	73.39594
763.063	64.06613
763.245	72.14638
763.428	40.24529
763.61	44.09215
763.793	31.81221
763.975	54.48869
764.158	43.7046
764.34	41.98475
764.522	33.30571
764.705	41.69106
764.887	65.38218
765.069	26.59538
765.252	59.76483
765.434	61.75655
765.616	50.75036
765.799	41.5878
765.981	65.33196
766.163	39.93186
766.345	70.8503
766.528	45.16506
766.71	18.66538
766.892	59.00052
767.074	79.93964
767.256	54.29402
767.438	91.48251
767.62	60.98366
767.802	101.40408
767.985	71.71549
768.167	97.33383
768.349	49.82008
768.531	72.48241
768.713	70.6828
768.895	81.17035
769.077	70.3477
769.259	116.02999
769.441	174.38555
769.623	83.30207
769.804	103.42068
769.986	98.28207
770.168	125.90018
770.35	149.87328
770.532	110.95465
770.714	117.22297
770.896	119.80923
771.077	48.30416
771.259	115.51051
771.441	100.62044
771.623	133.94763
771.804	168.75119
771.986	45.42554
772.168	75.61137
772.35	126.98293
772.531	172.37877
772.713	97.43095
772.894	136.71937
773.076	90.29203
773.258	81.76292
773.439	135.68595
773.621	153.54466
773.802	63.8698
773.984	77.18928
774.166	100.74343
774.347	143.87227
774.529	135.57316
774.71	40.18805
774.891	92.19216
775.073	80.23667
775.254	144.89927
775.436	74.80728
775.617	170.5304
775.799	80.5765
775.98	149.51943
776.161	156.42355
776.343	156.64614
776.524	92.67981
776.705	84.98626
776.886	41.75724
777.068	114.77874
777.249	206.35886
777.43	178.64374
777.611	60.02309
777.793	83.2394
777.974	156.02573
778.155	82.99587
778.336	73.00789
778.517	181.94742
778.698	74.52168
778.879	38.63287
779.061	19.39409
779.242	114.77714
779.423	118.26945
779.604	81.35577
779.785	93.92171
779.966	106.47718
780.147	135.19578
780.328	135.90597
780.509	202.91018
780.69	123.73579
780.871	73.62825
781.051	55.04066
781.232	108.03907
781.413	99.46332
781.594	90.27003
781.775	84.46168
781.956	78.62836
782.137	38.49303
782.317	76.05141
782.498	110.40747
782.679	96.83844
782.86	100.76207
783.04	76.72295
783.221	112.28738
783.402	176.6762
783.583	99.37667
783.763	126.88578
783.944	89.52274
784.124	53.02923
784.305	161.02797
784.486	121.44904
784.666	97.2202
784.847	49.89113
785.027	206.77535
785.208	74.2373
785.388	77.99207
785.569	84.07395
785.749	86.91295
785.93	80.82485
786.11	52.80546
786.291	115.19653
786.471	110.23812
786.652	130.84811
786.832	94.2352
787.012	117.0328
787.193	61.56615
787.373	105.09648
787.553	84.27132
787.734	111.85304
787.914	90.67412
788.094	118.24223
788.275	111.61883
788.455	86.42623
788.635	58.82724
788.815	108.48896
788.995	64.92738
789.176	51.63853
789.356	70.96922
789.536	92.678
789.716	114.05813
789.896	67.51496
790.076	78.37269
790.256	103.57495
790.436	30.61761
790.616	65.7197
790.796	101.89853
790.976	81.05299
791.156	73.73157
791.336	121.26076
791.516	109.4248
791.696	88.26104
791.876	51.3475
792.056	100.49406
792.236	129.88989
792.416	123.34587
792.596	114.6053
792.776	117.64497
792.956	116.35692
793.135	154.11989
793.315	64.39925
793.495	138.97309
793.675	123.88643
793.854	130.71572
794.034	133.1787
794.214	61.0913
794.394	123.26961
794.573	140.90981
794.753	101.2446
794.933	69.34221
795.112	103.3718
795.292	136.00441
795.472	177.82035
795.651	58.40639
795.831	98.03055
796.01	83.65688
796.19	86.62931
796.369	95.19885
796.549	113.84776
796.728	91.14836
796.908	54.62884
797.087	63.91854
797.267	84.82785
797.446	65.17759
797.626	113.08147
797.805	111.48211
797.984	68.51762
798.164	117.57606
798.343	66.66374
798.522	106.03182
798.702	94.08477
798.881	55.06945
799.06	89.24871
799.239	37.45434
799.419	63.84649
799.598	152.32744
799.777	119.58919
799.956	143.18262
800.136	87.66881
800.315	71.87641
800.494	112.06544
800.673	138.88914
800.852	115.86122
801.031	139.66386
801.21	116.45154
801.389	81.38039
801.568	101.55627
801.747	169.78059
801.926	100.03035
802.105	157.93604
802.284	82.06875
802.463	156.38748
802.642	109.95684
802.821	108.64635
803	157.28389
803.179	132.18803
803.358	146.51287
803.537	78.96719
803.716	103.15822
803.895	91.57324
804.073	93.91305
804.252	77.51709
804.431	117.26257
804.61	100.47427
804.789	144.01346
804.967	81.05333
805.146	81.06323
805.325	179.57014
805.503	120.64649
805.682	51.1173
805.861	202.47322
806.039	151.62943
806.218	78.39857
806.397	112.05875
806.575	99.27965
806.754	114.14817
806.932	68.80428
807.111	161.0505
807.289	142.16449
807.468	97.56707
807.646	144.37007
807.825	119.69302
808.003	109.87668
808.182	138.3064
808.36	101.46365
808.539	72.50269
808.717	161.25269
808.895	74.20892
809.074	114.35421
809.252	96.14689
809.43	131.41072
809.609	151.41233
809.787	165.34876
809.965	100.70048
810.144	103.89883
810.322	90.26644
810.5	132.85708
810.678	93.93508
810.856	199.48842
811.035	146.36475
811.213	131.71613
811.391	163.22693
811.569	115.03966
811.747	234.03935
811.925	156.82956
812.103	83.60278
812.281	105.45382
812.459	188.83288
812.637	185.32153
812.816	144.93678
812.994	193.89597
813.171	154.84433
813.349	135.01249
813.527	162.51157
813.705	164.09936
813.883	219.08847
814.061	150.96823
814.239	188.54007
814.417	202.95347
814.595	128.99697
814.773	122.40589
814.95	123.92475
815.128	133.38382
815.306	111.84119
815.484	103.59253
815.662	87.04565
815.839	75.98001
816.017	83.84015
816.195	168.0068
816.372	90.90868
816.55	150.96167
816.728	180.84467
816.905	106.81998
817.083	191.90829
817.261	94.75465
817.438	227.02083
817.616	201.01834
817.793	99.21059
817.971	148.9235
818.148	140.21365
818.326	179.23111
818.503	127.0221
818.681	189.57164
818.858	101.07826
819.036	115.13107
819.213	124.07188
819.391	89.82903
819.568	88.30424
819.745	80.69668
819.923	152.63273
820.1	92.11595
820.277	80.07073
820.455	95.66096
820.632	103.66975
820.809	106.24703
820.986	66.82239
821.164	50.21854
821.341	43.74947
821.518	63.49026
821.695	43.46984
821.872	39.19624
822.05	32.58302
822.227	20.49678
822.404	21.84874
822.581	27.01332
822.758	19.12245
822.935	18.53738
823.112	22.30019
823.289	14.85624
823.466	20.42147
823.643	17.38484
823.82	22.85144
823.997	19.0927
824.174	23.65695
824.351	33.36054
824.528	32.2444
824.705	29.12043
824.882	33.77758
825.059	47.99689
825.236	32.31946
825.412	35.4601
825.589	48.54614
825.766	73.87956
825.943	45.70813
826.12	57.70155
826.296	36.29158
826.473	51.30093
826.65	53.16113
826.827	72.26126
827.003	42.07941
827.18	46.12848
827.357	52.22061
827.533	45.75356
827.71	20.56262
827.887	34.64509
828.063	42.15069
828.24	35.17639
828.416	50.43891
828.593	36.8045
828.769	54.67211
828.946	60.84491
829.122	64.0119
829.299	57.28045
829.475	31.13176
829.652	60.56655
829.828	113.7859
830.005	70.74853
830.181	99.86441
830.357	71.50824
830.534	110.61924
830.71	83.38826
830.886	111.08099
831.063	109.83694
831.239	146.67233
831.415	67.28327
831.592	161.94302
831.768	93.04872
831.944	83.5868
832.12	178.06092
832.296	152.33325
832.473	134.84157
832.649	98.34587
832.825	132.55384
833.001	75.96131
833.177	128.42167
833.353	108.21509
833.529	55.29883
833.705	80.46361
833.881	55.27211
834.058	51.75564
834.234	54.63213
834.41	54.28681
834.586	40.01789
834.761	50.28026
834.937	53.53357
835.113	54.23559
835.289	45.55387
835.465	55.39501
835.641	46.80613
835.817	54.91641
835.993	103.50438
836.169	49.60722
836.344	77.53756
836.52	86.49238
836.696	91.51009
836.872	64.76779
837.048	209.05583
837.223	77.33212
837.399	173.66462
837.575	132.48236
837.75	129.33353
837.926	182.63463
838.102	325.85437
838.277	235.41379
838.453	314.4145
838.628	309.56871
838.804	118.96487
838.98	322.51889
839.155	140.16547
839.331	213.42921
839.506	155.38346
839.682	146.56492
839.857	195.46666
840.033	220.42458
840.208	103.61936
840.384	50.7312
840.559	104.37554
840.734	156.13629
840.91	243.71121
841.085	134.79929
841.26	131.46208
841.436	104.59132
841.611	101.10369
841.786	168.60039
841.962	245.00857
842.137	137.30229
842.312	80.35549
842.487	113.86429
842.663	90.94289
842.838	114.07664
843.013	512.56208
843.188	214.86612
843.363	172.15239
843.538	418.86964
843.714	402.75007
843.889	436.76285
844.064	430.69986
844.239	332.07603
844.414	467.97885
844.589	283.77831
844.764	591.2625
844.939	584.04047
845.114	755.71938
845.289	646.27015
845.464	718.6775
845.639	603.37362
845.814	248.40063
845.989	304.43259
846.163	352.29162
846.338	435.39746
846.513	678.93748
846.688	407.28591
846.863	345.94253
847.038	286.4864
847.212	335.88197
847.387	420.41406
847.562	535.66661
847.737	637.61126
847.911	167.21738
848.086	218.51574
848.261	813.573
848.435	315.33367
848.61	575.22586
848.785	248.03615
848.959	505.90865
849.134	814.73454
849.308	1202.04173
849.483	363.6451
849.658	640.55419
849.832	333.9796
850.007	251.44985
850.181	1314.13142
850.356	283.19785
850.53	989.63564
850.705	260.21428
850.879	158.34407
851.053	337.92195
851.228	339.70724
851.402	578.64932
851.577	576.03993
851.751	1257.08988
851.925	492.54374
852.099	200.86121
852.274	274.45658
852.448	339.95867
852.622	581.37255
852.797	385.36761
852.971	375.30918
853.145	410.41964
853.319	3231.74127
853.493	599.51762
853.668	336.80157
853.842	946.40293
854.016	667.66636
854.19	743.31097
854.364	467.86358
854.538	474.27609
854.712	822.49714
854.886	372.68397
855.06	335.46732
855.234	130.09227
855.408	857.55952
855.582	760.80786
855.756	842.36611
855.93	892.13149
856.104	406.84131
856.278	711.06674
856.452	403.52017
856.626	568.35995
856.8	1903.56569
856.973	559.59842
857.147	536.05845
857.321	658.14487
857.495	706.05394
857.669	470.60678
857.842	418.73932
858.016	637.02467
858.19	265.94602
858.364	3152.27855
858.537	380.58922
858.711	398.8353
858.885	404.62552
859.058	343.88003
859.232	165.87663
859.405	232.71443
859.579	735.37134
859.753	510.43614
859.926	326.81644
860.1	210.71437
860.273	550.90029
860.447	795.41215
860.62	416.12389
860.794	1366.15253
860.967	511.12352
861.141	868.40617
861.314	1961.41775
861.487	562.03222
861.661	939.7772
861.834	1142.54158
862.008	734.03492
862.181	532.05034
862.354	463.7902
862.528	689.45737
862.701	362.75931
862.874	256.736
863.047	397.97435
863.221	316.15622
863.394	176.1561
863.567	1326.45767
863.74	108.10328
863.913	933.2626
864.087	627.36622
864.26	998.9906
864.433	397.89051
864.606	1385.67173
864.779	445.05358
864.952	192.27491
865.125	395.97581
865.298	474.65809
865.471	414.50746
865.644	1244.99575
865.817	738.78038
865.99	770.09418
866.163	1109.40183
866.336	390.98378
866.509	376.03343
866.682	358.93268
866.855	791.18115
867.028	229.00233
867.2	548.74647
867.373	137.82911
867.546	488.90294
867.719	1459.91069
867.892	651.55901
868.064	294.27735
868.237	542.63304
868.41	494.68772
868.583	233.39556
868.755	259.93124
868.928	436.75957
869.101	1472.00879
869.273	875.01703
869.446	741.68124
869.619	1181.1078
869.791	499.96352
869.964	942.05214
870.136	863.90346
870.309	561.31337
870.481	491.83186
870.654	220.93252
870.826	642.82114
870.999	332.46265
871.171	603.33592
871.344	382.37837
871.516	416.05271
871.689	325.22038
871.861	541.87368
872.033	302.76498
872.206	352.93113
872.378	714.46573
872.55	463.02841
872.723	240.48934
872.895	470.57507
873.067	830.07222
873.24	692.65277
873.412	370.14235
873.584	458.23728
873.756	425.41258
873.928	527.27993
874.101	582.18857
874.273	677.81234
874.445	168.27478
874.617	228.78834
874.789	526.10703
874.961	388.82894
875.133	632.05702
875.305	400.23268
875.477	272.01532
875.649	199.44503
875.821	288.2983
875.993	1133.57622
876.165	320.52928
876.337	500.03098
876.509	440.53706
876.681	493.51206
876.853	549.49927
877.025	502.06048
877.197	301.43823
877.369	276.46373
877.541	746.87376
877.712	133.86447
877.884	240.72916
878.056	508.85558
878.228	355.36856
878.4	556.46071
878.571	284.39169
878.743	192.35172
878.915	493.44138
879.086	250.3651
879.258	367.22641
879.43	297.57613
879.601	253.97616
879.773	294.53213
879.945	62.95807
880.116	107.40277
880.288	63.57938
880.459	75.82419
880.631	51.88168
880.802	64.35498
880.974	58.0063
881.145	35.0621
881.317	49.86011
881.488	32.65867
881.66	35.82229
881.831	30.67808
882.002	44.32143
882.174	27.64494
882.345	38.18025
882.517	15.05089
882.688	44.13971
882.859	32.23302
883.03	52.8449
883.202	50.74736
883.373	39.35304
883.544	39.55477
883.715	69.88068
883.887	58.24752
884.058	50.8403
884.229	77.3908
884.4	76.09498
884.571	98.50525
884.742	80.05844
884.914	88.83366
885.085	147.02051
885.256	211.6224
885.427	162.88767
885.598	200.07228
885.769	216.84408
885.94	207.50937
886.111	131.8631
886.282	296.42891
886.453	211.60694
886.624	151.58918
886.795	336.03286
886.966	236.25493
887.136	312.91229
887.307	228.71439
887.478	475.05885
887.649	400.82066
887.82	441.53409
887.991	323.94129
888.161	420.92022
888.332	427.62022
888.503	183.74669
888.674	653.91901
888.844	914.08945
889.015	545.92741
889.186	209.38297
889.356	740.80433
889.527	193.49024
889.698	4564.43554
889.868	354.48354
890.039	509.10986
890.209	402.57834
890.38	582.67778
890.551	546.39037
890.721	721.69777
890.892	728.27238
891.062	447.89167
891.233	535.43734
891.403	448.43966
891.574	236.79152
891.744	411.66189
891.914	500.18498
892.085	523.64062
892.255	118.62667
892.425	1137.95236
892.596	555.24366
892.766	562.92993
892.936	790.00307
893.107	731.74165
893.277	284.45374
893.447	263.70075
893.618	170.45808
893.788	466.52908
893.958	215.50635
894.128	204.72574
894.298	248.20359
894.468	357.25741
894.639	153.11833
894.809	85.30003
894.979	142.4921
895.149	170.65609
895.319	129.02993
895.489	192.43021
895.659	242.02032
895.829	136.53404
895.999	135.06055
896.169	96.39546
896.339	129.03412
896.509	239.49113
896.679	291.73993
896.849	267.06346
897.019	407.77561
897.189	291.094
897.358	285.36381
897.528	417.94983
897.698	125.43102
897.868	370.76328
898.038	1184.63643
898.208	957.72682
898.377	164.41305
898.547	1186.69141
898.717	2661.6766
898.886	542.13639
899.056	994.23349
899.226	2219.95294
899.395	934.8676
899.565	1125.199
899.735	636.27458
899.904	2244.20417
900.074	2135.21349
900.244	476.24731
900.413	2901.54941
900.583	347.36221
900.752	599.75976
900.922	-5285.49017
901.091	58.55214
901.261	1267.10187
901.43	1031.98319
901.599	805.95061
901.769	-13972.14297
901.938	1939.82561
902.108	4503.42629
902.277	7602.37275
902.446	384.62282
902.616	431.62699
902.785	584.96352
902.954	2558.39243
903.124	1242.6428
903.293	636.65249
903.462	293.94848
903.631	457.73126
903.801	381.75361
903.97	155.21013
904.139	262.53709
904.308	173.91078
904.477	155.19111
904.646	74.2252
904.816	110.88777
904.985	184.83322
905.154	281.29541
