Data from WindowProjectSample3_Transmission__0__00000.txt Node

Date: Sun May 04 09:34:46 EDT 2025
User: jessi
Spectrometer: SR400872
Trigger mode: 0
Integration Time (sec): 5.000700E-2
Scans to average: 20
Electric dark correction enabled: true
Nonlinearity correction enabled: true
Boxcar width: 0
XAxis mode: Wavelengths
Number of Pixels in Spectrum: 3648
>>>>>Begin Spectral Data<<<<<
184.909	-2504.19001
185.132	-404.49553
185.355	-526.12489
185.578	427.9213
185.801	-90.13296
186.024	-2060.62938
186.247	2.48959
186.47	166.78818
186.693	-711.08338
186.916	78.78036
187.139	-509.00388
187.362	263.02622
187.585	705.16915
187.808	123.89622
188.031	134.09452
188.254	320.93721
188.476	-61.016
188.699	159.3441
188.922	33.42032
189.145	137.78994
189.368	36.91144
189.591	76.67495
189.813	85.56373
190.036	113.25635
190.259	65.09967
190.482	73.01642
190.705	166.95386
190.927	64.06071
191.15	74.85623
191.373	54.10025
191.595	63.7943
191.818	142.78904
192.041	24.62676
192.263	72.40869
192.486	15.86854
192.709	97.51751
192.931	104.90022
193.154	173.8014
193.377	82.32081
193.599	28.05617
193.822	25.84643
194.044	100.2304
194.267	34.59376
194.489	-41.17097
194.712	81.4044
194.934	147.75083
195.157	-17.17479
195.379	67.48839
195.602	58.19602
195.824	92.73191
196.047	47.15237
196.269	155.435
196.492	57.80382
196.714	48.24323
196.936	90.64966
197.159	134.11452
197.381	27.67167
197.604	-15.4808
197.826	61.65224
198.048	63.43095
198.271	74.88271
198.493	80.49058
198.715	54.63039
198.938	52.76972
199.16	38.77711
199.382	144.40056
199.604	47.99656
199.827	73.26666
200.049	35.26506
200.271	59.81959
200.493	58.13796
200.715	122.51605
200.938	168.7288
201.16	276.46216
201.382	47.19334
201.604	99.068
201.826	76.51899
202.048	17.83703
202.27	41.69712
202.492	95.0513
202.715	79.58557
202.937	81.31087
203.159	90.02033
203.381	41.69349
203.603	67.72875
203.825	19.17195
204.047	68.74213
204.269	44.28306
204.491	60.1933
204.713	109.13538
204.935	101.503
205.156	49.18174
205.378	93.1845
205.6	45.12183
205.822	148.572
206.044	23.00989
206.266	22.36406
206.488	44.73446
206.71	117.68251
206.932	73.70651
207.153	101.87069
207.375	35.65375
207.597	169.24824
207.819	89.04593
208.041	178.03851
208.262	49.97674
208.484	52.90995
208.706	38.67067
208.927	59.30848
209.149	37.33296
209.371	84.36837
209.593	2.34688
209.814	57.75158
210.036	29.96656
210.258	46.37318
210.479	31.83175
210.701	46.02215
210.922	73.43998
211.144	19.58869
211.366	113.78124
211.587	19.53501
211.809	117.9427
212.03	49.38487
212.252	26.946
212.473	57.31093
212.695	34.78567
212.916	68.94473
213.138	44.43645
213.359	56.23286
213.581	69.00607
213.802	39.67606
214.024	66.1412
214.245	28.02608
214.466	25.81876
214.688	75.00819
214.909	57.57819
215.131	69.16327
215.352	54.54765
215.573	161.45535
215.795	80.89752
216.016	105.26137
216.237	55.26117
216.459	53.21754
216.68	74.8401
216.901	59.99599
217.122	35.74618
217.344	57.48893
217.565	98.11714
217.786	100.81279
218.007	41.68964
218.228	46.2344
218.45	66.88
218.671	5.96552
218.892	42.35377
219.113	56.32686
219.334	-37.179
219.555	76.36646
219.776	65.03582
219.997	120.9671
220.219	35.19541
220.44	49.79437
220.661	16.76283
220.882	46.41914
221.103	55.10322
221.324	45.24535
221.545	72.67356
221.766	44.66937
221.987	17.50215
222.208	27.80672
222.429	81.78779
222.65	13.27718
222.87	20.4926
223.091	33.36761
223.312	17.62604
223.533	12.87895
223.754	71.09246
223.975	39.53769
224.196	21.54418
224.417	19.01199
224.637	22.21223
224.858	-0.15854
225.079	25.69701
225.3	19.12354
225.521	104.84805
225.741	18.82345
225.962	26.72762
226.183	8.5013
226.404	27.74424
226.624	19.95746
226.845	22.28873
227.066	19.87179
227.286	11.9152
227.507	5.09159
227.728	3.95333
227.948	14.0729
228.169	2.29075
228.389	5.31589
228.61	3.47116
228.831	3.83819
229.051	1.88317
229.272	2.43527
229.492	3.57516
229.713	0.31762
229.933	1.62144
230.154	3.03521
230.374	3.59621
230.595	2.54249
230.815	1.4122
231.036	4.37624
231.256	-0.28507
231.477	5.96208
231.697	2.93281
231.917	1.39774
232.138	2.48642
232.358	7.12732
232.579	4.59446
232.799	0.87139
233.019	5.85816
233.24	7.27195
233.46	3.95716
233.68	5.28021
233.901	2.46813
234.121	3.59672
234.341	1.2512
234.561	1.51578
234.782	2.61247
235.002	3.68451
235.222	0.7272
235.442	5.95364
235.662	2.28526
235.883	3.11111
236.103	3.52443
236.323	2.56514
236.543	1.74234
236.763	3.50312
236.983	1.65475
237.203	1.72307
237.423	5.09671
237.643	4.48457
237.864	5.94916
238.084	0.79573
238.304	1.26192
238.524	0.68427
238.744	2.17851
238.964	5.99406
239.184	2.85911
239.404	4.30386
239.624	2.07314
239.843	4.19179
240.063	3.09
240.283	0.60473
240.503	2.27171
240.723	1.43454
240.943	1.61519
241.163	0.95264
241.383	1.44914
241.603	0.45806
241.822	0.72735
242.042	0.47795
242.262	0.60272
242.482	1.14443
242.702	1.06787
242.921	0.25625
243.141	0.67212
243.361	0.88305
243.581	0.97809
243.8	0.56509
244.02	0.76827
244.24	1.20744
244.459	0.91033
244.679	1.66337
244.899	1.53347
245.118	1.24537
245.338	1.06095
245.558	1.21955
245.777	1.03626
245.997	0.87835
246.216	0.65542
246.436	0.35379
246.655	0.03026
246.875	0.16547
247.094	0.30799
247.314	0.15478
247.533	0.36087
247.753	0.38317
247.972	0.32195
248.192	-0.03149
248.411	0.0623
248.631	0.26784
248.85	0.51725
249.07	0.34218
249.289	0.43462
249.508	0.5307
249.728	0.67885
249.947	0.27917
250.166	0.97523
250.386	0.42559
250.605	0.06601
250.824	0.96674
251.044	1.02177
251.263	2.41004
251.482	1.14851
251.701	1.03579
251.921	-0.10894
252.14	0.51524
252.359	0.39894
252.578	0.22828
252.798	0.37612
253.017	0.86871
253.236	0.39083
253.455	0.68825
253.674	1.08002
253.893	0.27532
254.112	0.62093
254.331	0.93824
254.551	1.08424
254.77	0.06943
254.989	0.73989
255.208	1.36322
255.427	1.17658
255.646	0.63437
255.865	1.72135
256.084	0.79754
256.303	0.40524
256.522	1.16627
256.741	-0.35939
256.96	0.57203
257.179	0.74156
257.397	0.86444
257.616	0.53325
257.835	0.56439
258.054	1.36091
258.273	0.7201
258.492	1.08602
258.711	0.44545
258.93	0.32552
259.148	0.1551
259.367	0.2486
259.586	0.63723
259.805	0.20322
260.023	0.50781
260.242	0.33312
260.461	0.26055
260.68	0.10595
260.898	0.34386
261.117	0.09305
261.336	0.12442
261.554	0.37763
261.773	0.34306
261.992	0.02472
262.21	0.45328
262.429	0.54356
262.648	0.75199
262.866	0.84228
263.085	0.52988
263.303	0.51229
263.522	0.43743
263.74	0.70714
263.959	1.44145
264.178	0.45633
264.396	0.48133
264.615	0.61396
264.833	1.30383
265.051	0.88954
265.27	0.88553
265.488	0.90784
265.707	0.47104
265.925	0.81092
266.144	0.22534
266.362	0.49226
266.58	0.50196
266.799	0.35367
267.017	0.4872
267.235	0.35995
267.454	0.37806
267.672	0.16378
267.89	0.47523
268.109	0.41202
268.327	0.20242
268.545	-0.09845
268.763	0.2933
268.982	0.14506
269.2	0.40255
269.418	0.17283
269.636	0.3042
269.854	0.55244
270.073	0.38738
270.291	0.25268
270.509	0.22899
270.727	0.29323
270.945	0.63668
271.163	0.72684
271.381	0.17251
271.599	0.11144
271.817	0.54002
272.036	0.09476
272.254	0.21322
272.472	0.12413
272.69	0.16926
272.908	0.32334
273.126	0.45755
273.344	0.47719
273.562	0.21323
273.779	0.33178
273.997	0.29781
274.215	0.39386
274.433	0.27322
274.651	0.42141
274.869	0.31268
275.087	0.24417
275.305	0.3034
275.523	0.29283
275.74	0.22836
275.958	0.44517
276.176	0.58986
276.394	0.26321
276.612	0.26251
276.829	0.36839
277.047	0.3532
277.265	0.39203
277.483	0.33567
277.7	0.25186
277.918	0.56761
278.136	0.58374
278.353	0.29911
278.571	0.13211
278.789	0.48358
279.006	-0.03112
279.224	0.18387
279.442	0.31257
279.659	0.21092
279.877	0.40954
280.094	0.74431
280.312	0.27332
280.529	0.44233
280.747	0.15011
280.964	0.27855
281.182	0.50534
281.399	0.24329
281.617	0.26247
281.834	0.22804
282.052	0.11687
282.269	0.1549
282.487	0.21051
282.704	0.27559
282.921	0.21532
283.139	0.31417
283.356	0.38328
283.574	0.28444
283.791	0.25125
284.008	0.4492
284.226	0.15726
284.443	0.37237
284.66	0.44703
284.877	0.22873
285.095	0.07625
285.312	0.10657
285.529	0.13186
285.746	0.07664
285.964	0.19331
286.181	0.14132
286.398	0.17091
286.615	0.27739
286.832	0.29106
287.05	0.13177
287.267	0.23991
287.484	0.13793
287.701	0.34671
287.918	0.22009
288.135	0.25711
288.352	0.11728
288.569	0.19071
288.786	0.22912
289.003	0.19795
289.22	0.27495
289.437	0.12014
289.654	0.43685
289.871	0.30881
290.088	0.25516
290.305	0.20529
290.522	0.0972
290.739	0.1997
290.956	0.32629
291.173	0.26464
291.39	0.23128
291.607	0.19919
291.824	0.23226
292.04	0.14419
292.257	0.18674
292.474	0.28015
292.691	0.25897
292.908	0.17721
293.125	0.13075
293.341	0.1131
293.558	0.45755
293.775	0.08161
293.992	0.15509
294.208	0.08132
294.425	0.22508
294.642	0.17504
294.858	0.23506
295.075	0.02708
295.292	0.19877
295.508	0.2858
295.725	0.35205
295.942	0.23674
296.158	0.00572
296.375	0.27413
296.591	0.15828
296.808	0.17301
297.024	0.15255
297.241	0.18982
297.458	0.22283
297.674	0.05687
297.891	0.21126
298.107	0.17045
298.323	0.14281
298.54	0.27693
298.756	0.10627
298.973	0.07666
299.189	0.2657
299.406	0.07719
299.622	0.27289
299.838	0.23325
300.055	0.16957
300.271	0.03636
300.487	0.1488
300.704	0.01037
300.92	0.05911
301.136	0.36391
301.353	0.3562
301.569	0.21856
301.785	0.29746
302.001	0.29491
302.218	0.20806
302.434	0.25679
302.65	0.04187
302.866	0.10872
303.083	0.36826
303.299	0.3464
303.515	0.1055
303.731	0.15041
303.947	0.06179
304.163	0.1516
304.379	0.13794
304.595	0.18531
304.812	0.10087
305.028	-0.00613
305.244	0.14076
305.46	0.2237
305.676	0.15758
305.892	0.23885
306.108	0.2185
306.324	0.16162
306.54	0.36842
306.756	0.19387
306.972	0.15796
307.187	0.09646
307.403	0.42741
307.619	0.08419
307.835	0.3174
308.051	0.37109
308.267	0.06278
308.483	0.27873
308.699	0.21629
308.914	0.33619
309.13	0.18888
309.346	0.13795
309.562	0.15635
309.778	0.05548
309.993	0.27358
310.209	0.1477
310.425	0.06842
310.641	0.2156
310.856	0.01273
311.072	0.11906
311.288	0.26002
311.503	0.24882
311.719	0.06851
311.935	0.05671
312.15	0.20305
312.366	0.23645
312.581	0.20401
312.797	0.22419
313.013	0.24501
313.228	0.09666
313.444	0.12222
313.659	0.08572
313.875	0.30484
314.09	0.26452
314.306	0.28629
314.521	0.29209
314.737	0.17384
314.952	0.15947
315.168	0.24619
315.383	0.27554
315.599	0.17121
315.814	0.12803
316.029	0.21293
316.245	0.0234
316.46	0.1141
316.675	0.32398
316.891	0.40327
317.106	0.40671
317.321	0.10279
317.537	0.30708
317.752	0.25444
317.967	0.23123
318.183	0.16225
318.398	0.17681
318.613	0.25908
318.828	0.25828
319.043	0.2985
319.259	0.28884
319.474	0.22082
319.689	0.25155
319.904	0.00664
320.119	0.23053
320.334	0.22428
320.549	0.17454
320.765	0.33718
320.98	0.21248
321.195	0.17035
321.41	0.17314
321.625	0.2483
321.84	0.36723
322.055	0.28325
322.27	0.04747
322.485	0.15591
322.7	0.21991
322.915	0.33161
323.13	0.17313
323.345	0.282
323.56	0.3069
323.775	0.31816
323.989	0.26461
324.204	0.31324
324.419	0.26996
324.634	0.15579
324.849	0.17782
325.064	0.47808
325.279	0.24036
325.493	0.23004
325.708	0.21063
325.923	0.19025
326.138	0.16376
326.352	0.27609
326.567	0.36354
326.782	0.1919
326.997	0.10882
327.211	0.27042
327.426	0.25172
327.641	0.18861
327.855	0.02188
328.07	0.18344
328.285	0.32788
328.499	0.11093
328.714	0.26785
328.928	0.21114
329.143	0.24847
329.358	0.29893
329.572	0.33061
329.787	0.25525
330.001	0.46187
330.216	0.06782
330.43	0.32428
330.645	0.14885
330.859	0.32226
331.074	0.16515
331.288	0.269
331.503	0.15283
331.717	0.1302
331.931	0.22722
332.146	0.20382
332.36	0.28767
332.575	0.27202
332.789	0.20158
333.003	0.23092
333.218	0.2359
333.432	0.07422
333.646	0.31872
333.86	0.38195
334.075	0.35529
334.289	0.09446
334.503	0.15055
334.717	0.35185
334.932	0.11271
335.146	0.1718
335.36	0.22638
335.574	0.33512
335.788	0.16761
336.003	0.30614
336.217	0.24175
336.431	0.37622
336.645	0.00609
336.859	0.09135
337.073	0.20024
337.287	0.20825
337.501	0.10712
337.715	0.22304
337.929	0.23748
338.143	0.0739
338.357	0.15912
338.571	0.1068
338.785	0.23452
338.999	0.18268
339.213	0.18037
339.427	0.15362
339.641	0.25493
339.855	0.17223
340.069	0.13366
340.283	0.29506
340.497	0.30636
340.711	0.19607
340.924	0.18617
341.138	0.1906
341.352	0.04053
341.566	0.25891
341.78	0.19529
341.993	0.11244
342.207	0.08696
342.421	0.13324
342.635	0.12479
342.848	0.09383
343.062	0.01538
343.276	0.11694
343.49	0.39338
343.703	0.20378
343.917	0.22197
344.131	0.21675
344.344	0.08336
344.558	0.14068
344.771	0.0424
344.985	0.28622
345.199	0.28782
345.412	0.14598
345.626	0.19117
345.839	0.01155
346.053	0.11434
346.266	0.1371
346.48	0.31494
346.693	0.26315
346.907	0.24336
347.12	0.09524
347.334	0.28642
347.547	0.1734
347.76	0.19832
347.974	0.33322
348.187	0.25858
348.401	0.10233
348.614	0.10418
348.827	0.15423
349.041	0.2781
349.254	0.17977
349.467	0.14764
349.681	0.13382
349.894	0.1886
350.107	0.21334
350.32	0.3445
350.534	0.09701
350.747	0.21315
350.96	0.16061
351.173	0.14059
351.386	0.03739
351.6	0.20073
351.813	0.02891
352.026	0.26461
352.239	0.03814
352.452	0.13795
352.665	0.10687
352.878	0.13973
353.092	0.37154
353.305	0.28513
353.518	0.09094
353.731	0.04643
353.944	0.21501
354.157	0.25418
354.37	0.14053
354.583	0.08612
354.796	0.12615
355.009	0.33167
355.222	0.1621
355.435	0.10946
355.647	0.22216
355.86	0.11378
356.073	0.26237
356.286	0.17583
356.499	0.26358
356.712	0.23771
356.925	0.30257
357.138	0.26016
357.35	0.15053
357.563	0.16628
357.776	0.13322
357.989	0.15268
358.201	0.2052
358.414	0.22828
358.627	0.29349
358.84	0.1197
359.052	0.08701
359.265	0.13528
359.478	0.23469
359.69	0.0053
359.903	0.19783
360.116	0.21885
360.328	0.03366
360.541	0.2261
360.753	0.16878
360.966	0.14403
361.179	0.14262
361.391	0.13771
361.604	0.09096
361.816	0.11578
362.029	0.08466
362.241	0.053
362.454	0.12878
362.666	0.03937
362.879	0.21994
363.091	0.16231
363.304	0.1914
363.516	0.11883
363.728	0.09324
363.941	0.24295
364.153	0.13723
364.366	0.05656
364.578	0.03838
364.79	0.20559
365.003	0.15546
365.215	0.2183
365.427	0.15752
365.639	0.24059
365.852	0.1817
366.064	0.27383
366.276	0.16392
366.488	0.22576
366.701	0.112
366.913	0.15817
367.125	0.04922
367.337	0.17295
367.549	0.13148
367.762	0.14153
367.974	0.13165
368.186	0.15147
368.398	0.17333
368.61	0.22019
368.822	0.15723
369.034	0.11454
369.246	0.16983
369.458	0.40232
369.67	0.03572
369.882	0.29873
370.094	0.07442
370.306	0.2649
370.518	0.15721
370.73	0.12528
370.942	0.09804
371.154	0.11073
371.366	0.13522
371.578	0.18192
371.79	0.14144
372.002	0.22979
372.214	0.29454
372.425	0.19815
372.637	0.19107
372.849	0.25211
373.061	0.07821
373.273	0.23765
373.484	0.22247
373.696	0.20882
373.908	-0.0307
374.12	0.14217
374.331	0.21539
374.543	0.10825
374.755	0.08322
374.967	0.10299
375.178	0.19391
375.39	0.15242
375.602	0.2114
375.813	0.08024
376.025	0.12062
376.236	0.12109
376.448	0.23032
376.66	0.10529
376.871	0.14184
377.083	0.26617
377.294	0.28381
377.506	0.09157
377.717	0.26879
377.929	0.17303
378.14	0.08652
378.352	0.18718
378.563	0.16657
378.775	0.26935
378.986	0.17104
379.197	0.11083
379.409	0.19722
379.62	0.17209
379.832	0.12871
380.043	0.1426
380.254	0.10621
380.466	0.07842
380.677	0.35489
380.888	0.36554
381.1	0.331
381.311	0.33781
381.522	0.18562
381.733	0.33234
381.945	0.03404
382.156	0.16122
382.367	0.13988
382.578	0.3461
382.789	0.39274
383.001	0.10982
383.212	0.23064
383.423	0.27788
383.634	0.31407
383.845	0.14809
384.056	0.16658
384.267	0.14117
384.478	0.08398
384.69	0.09729
384.901	0.22234
385.112	0.17304
385.323	0.29749
385.534	0.19951
385.745	0.21074
385.956	0.20715
386.167	0.10905
386.378	0.19432
386.588	0.06051
386.799	0.02418
387.01	0.08138
387.221	0.20325
387.432	0.15799
387.643	0.28422
387.854	0.15097
388.065	0.1569
388.275	0.15334
388.486	0.19501
388.697	0.16665
388.908	0.13723
389.119	0.25045
389.329	0.26425
389.54	0.12937
389.751	0.18476
389.962	0.20466
390.172	0.17134
390.383	0.1251
390.594	0.0635
390.804	0.11063
391.015	0.12606
391.226	0.14694
391.436	0.15753
391.647	0.17467
391.858	0.17984
392.068	0.07588
392.279	0.07472
392.489	0.18921
392.7	0.17592
392.91	0.04797
393.121	0.10985
393.331	0.18715
393.542	0.27348
393.752	0.18553
393.963	0.18222
394.173	0.18196
394.384	0.17169
394.594	0.12189
394.804	0.08042
395.015	0.19091
395.225	0.22215
395.436	0.11293
395.646	0.15381
395.856	0.18076
396.067	0.0728
396.277	0.23177
396.487	0.12411
396.697	0.12131
396.908	0.29281
397.118	0.1488
397.328	0.18328
397.538	0.20391
397.749	0.09003
397.959	0.23218
398.169	0.20345
398.379	0.03796
398.589	0.22852
398.8	0.15915
399.01	0.12625
399.22	0.12119
399.43	0.33166
399.64	0.11003
399.85	0.19557
400.06	0.14435
400.27	0.04783
400.48	0.20869
400.69	0.22171
400.9	0.16007
401.11	0.14838
401.32	0.24508
401.53	0.13824
401.74	0.26123
401.95	0.21828
402.16	0.16947
402.37	0.1434
402.58	0.15795
402.79	0.16671
403	0.1747
403.209	0.0975
403.419	0.22373
403.629	0.17588
403.839	0.17467
404.049	0.22154
404.258	0.14555
404.468	0.10819
404.678	0.23171
404.888	0.18744
405.097	0.13018
405.307	0.1717
405.517	0.21445
405.727	0.23468
405.936	0.15697
406.146	0.19508
406.356	0.24139
406.565	0.12549
406.775	0.10023
406.984	0.07955
407.194	0.23861
407.404	0.2069
407.613	0.12349
407.823	0.1913
408.032	0.2358
408.242	0.29631
408.451	0.19253
408.661	0.15078
408.87	0.26117
409.08	0.19881
409.289	0.16238
409.499	0.19686
409.708	0.17464
409.918	-0.00115
410.127	0.14616
410.336	0.23956
410.546	0.1767
410.755	0.07495
410.964	0.14509
411.174	0.12473
411.383	0.15313
411.592	0.2014
411.802	0.06035
412.011	0.2303
412.22	0.21468
412.429	0.23966
412.639	0.26842
412.848	0.24466
413.057	0.24276
413.266	0.22679
413.475	0.14291
413.685	0.21183
413.894	0.25949
414.103	0.23875
414.312	0.19865
414.521	0.19858
414.73	0.14136
414.939	0.31671
415.148	0.12743
415.357	0.1633
415.566	0.15554
415.776	0.12377
415.985	0.15488
416.194	0.24096
416.403	0.25072
416.611	0.10126
416.82	0.1149
417.029	0.21117
417.238	0.13489
417.447	0.12722
417.656	0.13089
417.865	0.0988
418.074	0.14296
418.283	0.1832
418.492	0.27985
418.7	0.27089
418.909	0.34678
419.118	0.23344
419.327	0.19447
419.536	0.21956
419.744	0.19405
419.953	0.29514
420.162	0.30852
420.371	0.2132
420.579	0.24465
420.788	0.31169
420.997	0.32573
421.205	0.28461
421.414	0.29221
421.623	0.29631
421.831	0.22592
422.04	0.38527
422.249	0.2357
422.457	0.30283
422.666	0.26412
422.874	0.32623
423.083	0.31695
423.291	0.30442
423.5	0.27492
423.708	0.33308
423.917	0.35263
424.125	0.33867
424.334	0.26572
424.542	0.41434
424.751	0.36223
424.959	0.30952
425.167	0.34879
425.376	0.3862
425.584	0.28361
425.793	0.31253
426.001	0.1733
426.209	0.26304
426.418	0.20067
426.626	0.22192
426.834	0.1302
427.042	0.19096
427.251	0.15087
427.459	0.25198
427.667	0.22707
427.875	0.08822
428.084	0.18438
428.292	0.25832
428.5	0.21785
428.708	0.12515
428.916	0.12662
429.124	0.1946
429.333	0.1806
429.541	0.14108
429.749	0.17054
429.957	0.21574
430.165	0.37229
430.373	0.20705
430.581	0.25727
430.789	0.28219
430.997	0.15154
431.205	0.17634
431.413	0.20993
431.621	0.21869
431.829	0.2643
432.037	0.20012
432.245	0.24389
432.453	0.2082
432.661	0.1793
432.869	0.3308
433.076	0.1387
433.284	0.18035
433.492	0.28826
433.7	0.29851
433.908	0.18726
434.116	0.23318
434.323	0.19098
434.531	0.26658
434.739	0.24459
434.947	0.26572
435.154	0.24122
435.362	0.23597
435.57	0.19267
435.778	0.18828
435.985	0.29165
436.193	0.18376
436.401	0.26483
436.608	0.24081
436.816	0.17596
437.023	0.31881
437.231	0.3371
437.439	0.21319
437.646	0.22504
437.854	0.25145
438.061	0.31629
438.269	0.23861
438.476	0.29585
438.684	0.24741
438.891	0.26104
439.099	0.23558
439.306	0.20265
439.514	0.19787
439.721	0.33425
439.929	0.25669
440.136	0.31562
440.343	0.28177
440.551	0.25836
440.758	0.48661
440.965	0.36591
441.173	0.30985
441.38	0.2938
441.587	0.27951
441.795	0.24515
442.002	0.30002
442.209	0.27462
442.416	0.26309
442.624	0.29996
442.831	0.26088
443.038	0.23319
443.245	0.18516
443.452	0.18593
443.66	0.29321
443.867	0.20621
444.074	0.17283
444.281	0.21371
444.488	0.26861
444.695	0.23097
444.902	0.28444
445.109	0.36064
445.316	0.32272
445.523	0.32965
445.73	0.2168
445.937	0.36599
446.144	0.37927
446.351	0.38453
446.558	0.26087
446.765	0.41376
446.972	0.40407
447.179	0.39271
447.386	0.43646
447.593	0.33968
447.8	0.37134
448.007	0.30132
448.214	0.32702
448.42	0.27032
448.627	0.35346
448.834	0.30267
449.041	0.23142
449.248	0.25688
449.454	0.27017
449.661	0.35687
449.868	0.23635
450.075	0.23494
450.281	0.14689
450.488	0.23435
450.695	0.1678
450.901	0.17584
451.108	0.20536
451.315	0.33591
451.521	0.26637
451.728	0.30072
451.935	0.18952
452.141	0.25896
452.348	0.20022
452.554	0.18623
452.761	0.20503
452.967	0.33755
453.174	0.19361
453.38	0.26458
453.587	0.19684
453.793	0.25048
454	0.34651
454.206	0.39705
454.413	0.29985
454.619	0.26155
454.825	0.17001
455.032	0.32273
455.238	0.26464
455.445	0.1901
455.651	0.29512
455.857	0.13117
456.064	0.26791
456.27	0.22856
456.476	0.25322
456.682	0.22045
456.889	0.28892
457.095	0.3467
457.301	0.38826
457.507	0.23108
457.714	0.29416
457.92	0.27785
458.126	0.20357
458.332	0.24904
458.538	0.19607
458.744	0.26994
458.951	0.32731
459.157	0.47744
459.363	0.3467
459.569	0.37275
459.775	0.40458
459.981	0.32665
460.187	0.4256
460.393	0.43863
460.599	0.48328
460.805	0.33584
461.011	0.34252
461.217	0.38273
461.423	0.37386
461.629	0.2663
461.835	0.31661
462.041	0.28163
462.247	0.42633
462.453	0.24692
462.658	0.29912
462.864	0.31845
463.07	0.22447
463.276	0.38443
463.482	0.30315
463.688	0.4151
463.893	0.23026
464.099	0.30329
464.305	0.34813
464.511	0.24946
464.716	0.27242
464.922	0.2945
465.128	0.24149
465.333	0.39116
465.539	0.36689
465.745	0.27033
465.95	0.26933
466.156	0.46491
466.362	0.32609
466.567	0.33654
466.773	0.22937
466.978	0.33215
467.184	0.22903
467.389	0.18176
467.595	0.26838
467.8	0.24793
468.006	0.44719
468.211	0.36934
468.417	0.21757
468.622	0.28541
468.828	0.35236
469.033	0.33018
469.239	0.45043
469.444	0.25767
469.649	0.39129
469.855	0.27669
470.06	0.32113
470.266	0.17914
470.471	0.33653
470.676	0.31986
470.881	0.25922
471.087	0.31244
471.292	0.55565
471.497	0.21103
471.703	0.28646
471.908	0.25724
472.113	0.21775
472.318	0.32694
472.523	0.26641
472.729	0.33308
472.934	0.34755
473.139	0.29526
473.344	0.2808
473.549	0.3598
473.754	0.24974
473.959	0.45829
474.164	0.27819
474.369	0.27713
474.575	0.34685
474.78	0.29191
474.985	0.29485
475.19	0.24177
475.395	0.297
475.6	0.24444
475.804	0.34248
476.009	0.3221
476.214	0.2771
476.419	0.27551
476.624	0.27362
476.829	0.27816
477.034	0.34648
477.239	0.27655
477.444	0.34447
477.648	0.29337
477.853	0.33517
478.058	0.27978
478.263	0.26894
478.468	0.26435
478.672	0.27031
478.877	0.4092
479.082	0.42185
479.287	0.29494
479.491	0.35842
479.696	0.25415
479.901	0.36361
480.105	0.32286
480.31	0.27986
480.515	0.2784
480.719	0.44675
480.924	0.28165
481.128	0.29398
481.333	0.33713
481.538	0.33768
481.742	0.34753
481.947	0.45331
482.151	0.4721
482.356	0.52381
482.56	0.61611
482.765	0.74233
482.969	0.92099
483.174	1.08188
483.378	1.28002
483.582	1.29746
483.787	1.56242
483.991	1.46752
484.196	1.55454
484.4	1.46806
484.604	1.58987
484.809	1.28451
485.013	1.23904
485.217	1.05925
485.422	0.90338
485.626	0.7768
485.83	0.73694
486.034	0.70687
486.239	0.78511
486.443	0.8035
486.647	0.81556
486.851	0.90352
487.055	0.99226
487.26	0.91284
487.464	1.11465
487.668	0.90461
487.872	1.02214
488.076	1.03386
488.28	1.00271
488.484	0.88323
488.688	0.8455
488.892	0.79975
489.096	0.77789
489.3	0.67599
489.504	0.59269
489.708	0.63409
489.912	0.63659
490.116	0.59984
490.32	0.53257
490.524	0.6365
490.728	0.68524
490.932	0.71869
491.136	0.7292
491.34	0.82288
491.544	0.85532
491.748	0.7734
491.951	0.85232
492.155	0.77664
492.359	0.7719
492.563	0.71444
492.767	0.59852
492.97	0.64906
493.174	0.49696
493.378	0.49453
493.582	0.37116
493.785	0.40219
493.989	0.38211
494.193	0.31825
494.396	0.3835
494.6	0.36133
494.804	0.30981
495.007	0.29647
495.211	0.29738
495.414	0.3045
495.618	0.35259
495.822	0.40563
496.025	0.26885
496.229	0.41852
496.432	0.40385
496.636	0.3682
496.839	0.40217
497.043	0.51843
497.246	0.38382
497.45	0.40464
497.653	0.393
497.856	0.39141
498.06	0.32114
498.263	0.39483
498.467	0.36207
498.67	0.40657
498.873	0.40174
499.077	0.35788
499.28	0.36657
499.483	0.35182
499.686	0.40935
499.89	0.35782
500.093	0.34526
500.296	0.3311
500.499	0.42723
500.703	0.35193
500.906	0.35071
501.109	0.44725
501.312	0.33631
501.515	0.31033
501.719	0.391
501.922	0.50497
502.125	0.36968
502.328	0.39632
502.531	0.3276
502.734	0.36642
502.937	0.25004
503.14	0.39916
503.343	0.25138
503.546	0.31969
503.749	0.33302
503.952	0.3445
504.155	0.32797
504.358	0.38436
504.561	0.38184
504.764	0.29144
504.967	0.37964
505.17	0.41361
505.373	0.47403
505.576	0.37105
505.778	0.34001
505.981	0.2586
506.184	0.38349
506.387	0.27214
506.59	0.44556
506.793	0.41043
506.995	0.37937
507.198	0.27168
507.401	0.38742
507.604	0.34022
507.806	0.32855
508.009	0.34183
508.212	0.37796
508.414	0.3179
508.617	0.35364
508.82	0.37501
509.022	0.42434
509.225	0.35107
509.427	0.32461
509.63	0.43661
509.833	0.3939
510.035	0.42899
510.238	0.26521
510.44	0.47988
510.643	0.23896
510.845	0.44545
511.048	0.3936
511.25	0.36325
511.453	0.3816
511.655	0.3956
511.858	0.35247
512.06	0.39658
512.262	0.39223
512.465	0.44609
512.667	0.37912
512.869	0.34992
513.072	0.43623
513.274	0.45855
513.476	0.42587
513.679	0.39674
513.881	0.3488
514.083	0.49142
514.286	0.34294
514.488	0.36511
514.69	0.26632
514.892	0.25243
515.094	0.4078
515.297	0.35053
515.499	0.35567
515.701	0.27286
515.903	0.47856
516.105	0.4473
516.307	0.46644
516.509	0.25596
516.711	0.33384
516.913	0.40501
517.116	0.38853
517.318	0.31548
517.52	0.45476
517.722	0.43581
517.924	0.37204
518.126	0.43372
518.328	0.43512
518.529	0.48611
518.731	0.59874
518.933	0.44316
519.135	0.44812
519.337	0.50536
519.539	0.46025
519.741	0.35963
519.943	0.3634
520.145	0.37975
520.346	0.44128
520.548	0.37151
520.75	0.44538
520.952	0.39781
521.153	0.46651
521.355	0.40386
521.557	0.33857
521.759	0.36333
521.96	0.40641
522.162	0.35637
522.364	0.43838
522.565	0.31909
522.767	0.41072
522.969	0.39424
523.17	0.40201
523.372	0.38739
523.573	0.36698
523.775	0.38553
523.977	0.32213
524.178	0.50303
524.38	0.34432
524.581	0.43344
524.783	0.38908
524.984	0.51097
525.186	0.48228
525.387	0.52639
525.589	0.50638
525.79	0.48961
525.991	0.50947
526.193	0.54082
526.394	0.44756
526.596	0.56058
526.797	0.59001
526.998	0.53966
527.2	0.5219
527.401	0.68274
527.602	0.77597
527.803	0.94382
528.005	1.08912
528.206	1.15596
528.407	1.33412
528.608	1.19916
528.81	1.3346
529.011	1.21696
529.212	1.30483
529.413	1.13267
529.614	1.08164
529.815	0.96361
530.017	0.93053
530.218	0.76406
530.419	0.63476
530.62	0.60459
530.821	0.59677
531.022	0.46324
531.223	0.56642
531.424	0.54308
531.625	0.55375
531.826	0.52398
532.027	0.56117
532.228	0.68499
532.429	0.69922
532.63	0.70996
532.831	0.78012
533.032	0.76032
533.233	0.79003
533.433	0.81039
533.634	0.87402
533.835	0.76213
534.036	0.72187
534.237	0.66091
534.438	0.63442
534.638	0.55465
534.839	0.49903
535.04	0.50281
535.241	0.45613
535.441	0.56229
535.642	0.53177
535.843	0.43195
536.043	0.49637
536.244	0.49328
536.445	0.52164
536.645	0.58727
536.846	0.59801
537.047	0.60652
537.247	0.4393
537.448	0.5006
537.648	0.45592
537.849	0.45598
538.049	0.46067
538.25	0.50181
538.451	0.46098
538.651	0.40251
538.851	0.40265
539.052	0.44993
539.252	0.48694
539.453	0.34691
539.653	0.41576
539.854	0.42373
540.054	0.47426
540.254	0.63176
540.455	0.76514
540.655	0.62717
540.855	0.82805
541.056	0.93525
541.256	0.89197
541.456	1.00818
541.657	0.94207
541.857	0.93721
542.057	0.80957
542.257	0.78493
542.458	0.87891
542.658	0.82314
542.858	0.61077
543.058	0.70014
543.258	0.61168
543.458	0.4972
543.659	0.49552
543.859	0.54463
544.059	0.51056
544.259	0.43699
544.459	0.56811
544.659	0.42045
544.859	0.47323
545.059	0.41462
545.259	0.4756
545.459	0.42865
545.659	0.50546
545.859	0.45477
546.059	0.45355
546.259	0.4181
546.459	0.36747
546.659	0.36795
546.859	0.44328
547.059	0.44
547.258	0.43077
547.458	0.38992
547.658	0.43188
547.858	0.33793
548.058	0.53097
548.258	0.467
548.457	0.40635
548.657	0.60656
548.857	0.40493
549.057	0.49458
549.256	0.46624
549.456	0.43275
549.656	0.25719
549.855	0.5624
550.055	0.45333
550.255	0.51872
550.454	0.4977
550.654	0.53524
550.853	0.4686
551.053	0.49999
551.253	0.50115
551.452	0.41779
551.652	0.37576
551.851	0.3361
552.051	0.45163
552.25	0.34279
552.45	0.31876
552.649	0.4443
552.849	0.44158
553.048	0.39656
553.248	0.51064
553.447	0.31458
553.646	0.44057
553.846	0.64583
554.045	0.48746
554.244	0.25741
554.444	0.54383
554.643	0.41284
554.842	0.56459
555.042	0.47008
555.241	0.29734
555.44	0.31228
555.64	0.47291
555.839	0.49619
556.038	0.46464
556.237	0.43161
556.436	0.47868
556.636	0.45871
556.835	0.30745
557.034	0.55675
557.233	0.45402
557.432	0.29377
557.631	0.46798
557.83	0.39959
558.029	0.46964
558.228	0.39946
558.427	0.2937
558.626	0.42335
558.825	0.26186
559.024	0.39431
559.223	0.58628
559.422	0.45354
559.621	0.56679
559.82	0.29547
560.019	0.49054
560.218	0.31956
560.417	0.29815
560.616	0.3191
560.815	0.71488
561.014	0.34119
561.212	0.51191
561.411	0.40586
561.61	0.32467
561.809	0.30643
562.008	0.59582
562.206	0.29071
562.405	0.5442
562.604	0.40078
562.803	0.50715
563.001	0.44243
563.2	0.33057
563.399	0.49841
563.597	0.3074
563.796	0.4803
563.995	0.33775
564.193	0.46383
564.392	0.42314
564.59	0.57706
564.789	0.28972
564.988	0.41769
565.186	0.33114
565.385	0.45552
565.583	0.34697
565.782	0.47588
565.98	0.4972
566.179	0.43618
566.377	0.32114
566.575	0.39405
566.774	0.4436
566.972	0.44281
567.171	0.53809
567.369	0.64404
567.567	0.51887
567.766	0.36473
567.964	0.27608
568.162	0.49099
568.361	0.51334
568.559	0.49115
568.757	0.37357
568.956	0.50484
569.154	0.42836
569.352	0.47657
569.55	0.44094
569.748	0.45953
569.947	0.44501
570.145	0.28856
570.343	0.32498
570.541	0.49356
570.739	0.38767
570.937	0.47129
571.135	0.436
571.333	0.61975
571.532	0.62376
571.73	0.46477
571.928	0.41151
572.126	0.45438
572.324	0.46172
572.522	0.56041
572.72	0.70597
572.918	0.48865
573.116	0.45764
573.313	0.34352
573.511	0.4712
573.709	0.36835
573.907	0.55459
574.105	0.52698
574.303	0.29954
574.501	0.36764
574.699	0.465
574.896	0.40735
575.094	0.38631
575.292	0.34739
575.49	0.51493
575.688	0.5327
575.885	0.53251
576.083	0.59278
576.281	0.40388
576.478	0.42187
576.676	0.50472
576.874	0.34979
577.071	0.40434
577.269	0.62113
577.467	0.32692
577.664	0.4384
577.862	0.54487
578.059	0.38567
578.257	0.39129
578.455	0.41402
578.652	0.47379
578.85	0.37642
579.047	0.4957
579.245	0.42778
579.442	0.40689
579.64	0.37196
579.837	0.31493
580.034	0.73269
580.232	0.42659
580.429	0.43649
580.627	0.43884
580.824	0.70503
581.021	0.38317
581.219	0.32999
581.416	0.32975
581.613	0.54471
581.811	0.48822
582.008	0.40549
582.205	0.30811
582.402	0.45846
582.6	0.64065
582.797	0.50819
582.994	0.58392
583.191	0.53452
583.388	0.43486
583.586	0.37589
583.783	0.43239
583.98	0.30428
584.177	0.47311
584.374	0.1935
584.571	0.42025
584.768	0.41237
584.965	0.43642
585.162	0.59311
585.359	0.73407
585.556	0.35491
585.753	0.38446
585.95	0.32944
586.147	0.22734
586.344	0.40591
586.541	0.45452
586.738	0.26851
586.935	0.39715
587.132	0.34168
587.329	0.62562
587.526	0.46758
587.722	0.98937
587.919	0.34203
588.116	0.52273
588.313	0.57746
588.51	0.69862
588.706	0.50504
588.903	0.51637
589.1	0.31954
589.297	0.47674
589.493	0.5199
589.69	0.50504
589.887	0.38226
590.083	0.3525
590.28	0.414
590.477	0.48685
590.673	0.44422
590.87	0.63509
591.067	0.32624
591.263	0.53572
591.46	0.37128
591.656	0.40712
591.853	0.68671
592.049	0.48086
592.246	0.30399
592.442	0.62432
592.639	0.63222
592.835	0.52689
593.032	0.44441
593.228	0.20385
593.425	0.45971
593.621	0.25171
593.817	0.57473
594.014	0.40215
594.21	0.46491
594.406	0.53646
594.603	0.46242
594.799	0.43576
594.995	0.23105
595.192	0.50891
595.388	0.43276
595.584	0.43939
595.78	0.32775
595.977	0.63468
596.173	0.53791
596.369	0.45719
596.565	0.32252
596.761	0.3465
596.957	0.4434
597.154	0.35919
597.35	0.42108
597.546	0.46057
597.742	0.4866
597.938	0.50874
598.134	0.43787
598.33	0.57709
598.526	0.47017
598.722	0.48325
598.918	0.5166
599.114	0.4631
599.31	0.42273
599.506	0.43906
599.702	0.28349
599.898	0.50495
600.094	0.6524
600.29	0.4252
600.485	0.50687
600.681	0.39145
600.877	0.67544
601.073	0.44652
601.269	0.63191
601.465	0.55671
601.66	0.42826
601.856	0.26258
602.052	0.57895
602.248	0.46073
602.443	0.24456
602.639	0.34942
602.835	0.47246
603.03	0.35897
603.226	0.55435
603.422	0.4321
603.617	0.45669
603.813	0.3575
604.009	0.34903
604.204	0.49033
604.4	0.34179
604.595	0.5382
604.791	0.43149
604.986	0.44717
605.182	0.31429
605.377	0.31564
605.573	0.43207
605.768	0.48386
605.964	0.58886
606.159	0.49256
606.355	0.56139
606.55	0.41817
606.746	0.49702
606.941	0.58146
607.136	0.57141
607.332	0.80192
607.527	0.19064
607.722	0.51794
607.918	0.43317
608.113	0.34667
608.308	0.60534
608.503	0.52161
608.699	0.49193
608.894	0.42552
609.089	0.38696
609.284	0.41257
609.479	0.44932
609.675	0.53658
609.87	0.33898
610.065	0.53035
610.26	0.58055
610.455	0.45934
610.65	0.46989
610.845	0.43747
611.04	0.53779
611.235	0.48305
611.43	0.40197
611.625	0.37234
611.82	0.66769
612.015	0.41699
612.21	0.52658
612.405	0.41704
612.6	0.87862
612.795	0.66235
612.99	0.49117
613.185	0.41172
613.38	0.29186
613.575	0.39007
613.77	0.74463
613.965	0.24802
614.159	0.40531
614.354	0.70308
614.549	0.62611
614.744	0.62456
614.938	0.23953
615.133	0.29993
615.328	0.76191
615.523	0.60908
615.717	0.88166
615.912	0.39934
616.107	0.54877
616.301	0.56453
616.496	0.36871
616.691	0.69289
616.885	0.56993
617.08	0.85362
617.274	0.68276
617.469	0.71131
617.664	0.57286
617.858	0.41617
618.053	0.53277
618.247	0.52087
618.442	0.28651
618.636	0.7317
618.831	0.64717
619.025	0.37987
619.219	0.74176
619.414	0.04773
619.608	0.48832
619.803	0.35832
619.997	0.7765
620.191	0.8491
620.386	0.56635
620.58	0.49451
620.774	0.17825
620.969	0.26133
621.163	0.28684
621.357	0.52631
621.551	0.45653
621.746	0.33887
621.94	0.55597
622.134	1.05621
622.328	0.75792
622.522	0.46346
622.716	0.75754
622.911	0.60884
623.105	0.6665
623.299	0.50931
623.493	0.89519
623.687	0.40293
623.881	0.46929
624.075	0.53343
624.269	0.56257
624.463	0.26394
624.657	0.16494
624.851	0.54367
625.045	0.72822
625.239	0.66374
625.433	0.29204
625.627	0.58866
625.821	0.42871
626.015	0.47891
626.209	0.42712
626.403	0.22179
626.596	0.59712
626.79	0.56037
626.984	0.50695
627.178	0.43077
627.372	0.58127
627.565	0.57791
627.759	0.17144
627.953	0.26958
628.147	0.56017
628.34	0.5591
628.534	0.78093
628.728	0.36571
628.921	0.628
629.115	0.59511
629.309	0.47157
629.502	0.63813
629.696	0.48137
629.89	0.48194
630.083	0.59219
630.277	0.61439
630.47	0.7466
630.664	0.48985
630.857	0.25868
631.051	0.60423
631.244	0.60654
631.438	0.56473
631.631	0.14575
631.825	0.83387
632.018	0.58881
632.212	0.94514
632.405	0.67599
632.598	0.39861
632.792	0.44495
632.985	0.10267
633.178	0.34176
633.372	0.54357
633.565	0.32899
633.758	0.60657
633.952	0.40902
634.145	0.30366
634.338	0.63867
634.531	0.62648
634.724	0.51803
634.918	0.60799
635.111	0.48543
635.304	0.36884
635.497	0.93356
635.69	0.59467
635.883	0.74152
636.077	0.12191
636.27	0.56941
636.463	0.59318
636.656	0.61189
636.849	0.39746
637.042	0.6902
637.235	1.07991
637.428	0.55907
637.621	0.64456
637.814	1.05903
638.007	0.88643
638.2	0.79144
638.393	0.84047
638.586	0.53021
638.778	0.3692
638.971	0.64095
639.164	0.60809
639.357	0.52622
639.55	0.74377
639.743	0.82881
639.935	0.65991
640.128	0.86431
640.321	0.7292
640.514	0.60764
640.707	0.8114
640.899	0.69573
641.092	0.18614
641.285	2.54904
641.477	0.3354
641.67	0.95497
641.863	0.70266
642.055	0.50719
642.248	0.93848
642.441	0.50112
642.633	0.68783
642.826	0.68811
643.018	0.77142
643.211	0.97059
643.403	0.91327
643.596	0.88771
643.788	0.97403
643.981	0.49836
644.173	0.66696
644.366	0.3504
644.558	0.53949
644.751	0.64159
644.943	0.21922
645.135	0.98698
645.328	0.92936
645.52	0.71786
645.712	0.82531
645.905	1.30218
646.097	0.54474
646.289	0.73217
646.482	0.89326
646.674	0.60777
646.866	0.81897
647.058	0.78181
647.251	0.62079
647.443	0.50919
647.635	0.5745
647.827	0.50197
648.019	0.47358
648.211	0.36126
648.404	0.68282
648.596	0.85516
648.788	0.75101
648.98	0.71696
649.172	0.65606
649.364	0.73146
649.556	0.27977
649.748	1.01078
649.94	0.14826
650.132	0.74116
650.324	0.48984
650.516	0.40141
650.708	0.85643
650.9	0.48466
651.092	0.38348
651.284	0.51841
651.476	0.69723
651.667	0.58421
651.859	0.88755
652.051	0.60433
652.243	0.65248
652.435	0.32677
652.627	0.6977
652.818	0.54011
653.01	0.11352
653.202	0.58042
653.394	0.55207
653.585	0.98119
653.777	1.38613
653.969	0.76384
654.16	0.85853
654.352	0.49671
654.544	0.42477
654.735	0.82123
654.927	0.64215
655.118	0.95536
655.31	0.80216
655.502	1.00356
655.693	0.4172
655.885	0.63098
656.076	0.63332
656.268	0.62879
656.459	0.90435
656.651	0.98039
656.842	0.52297
657.034	0.43468
657.225	0.75003
657.416	0.80434
657.608	0.96075
657.799	0.78956
657.99	0.7305
658.182	0.40457
658.373	0.54694
658.564	0.86192
658.756	0.62615
658.947	0.52973
659.138	0.4414
659.33	0.54139
659.521	0.4827
659.712	0.57253
659.903	0.59493
660.094	0.55963
660.286	0.43074
660.477	0.9485
660.668	0.53266
660.859	0.71078
661.05	0.45519
661.241	0.99038
661.432	0.74018
661.623	0.63302
661.814	0.63477
662.006	0.1335
662.197	0.39648
662.388	1.01538
662.579	0.71387
662.77	0.90277
662.96	1.29014
663.151	0.83162
663.342	0.65014
663.533	0.59673
663.724	0.60545
663.915	1.32954
664.106	0.66966
664.297	1.09529
664.488	0.85041
664.678	0.69337
664.869	0.83445
665.06	1.18524
665.251	0.35163
665.442	0.6562
665.632	0.6725
665.823	1.18102
666.014	0.26132
666.204	1.05462
666.395	1.31588
666.586	1.45979
666.776	0.65377
666.967	0.9127
667.158	0.5081
667.348	1.06192
667.539	0.44502
667.729	0.86004
667.92	0.71394
668.111	0.92898
668.301	0.65278
668.492	0.68119
668.682	0.82949
668.873	0.45797
669.063	0.62995
669.253	0.84171
669.444	0.96975
669.634	0.84704
669.825	1.20224
670.015	1.06328
670.206	0.44022
670.396	1.15226
670.586	0.58073
670.777	0.9592
670.967	0.1436
671.157	0.95332
671.347	0.57104
671.538	1.31112
671.728	0.80257
671.918	1.11383
672.108	1.11214
672.299	0.64284
672.489	1.01008
672.679	0.7607
672.869	1.12814
673.059	1.3325
673.249	0.95092
673.44	0.85066
673.63	0.88366
673.82	1.07455
674.01	0.68772
674.2	0.76497
674.39	1.63294
674.58	0.94365
674.77	0.86955
674.96	0.99987
675.15	1.61527
675.34	1.01986
675.53	0.5767
675.72	0.46748
675.91	0.49972
676.099	1.38617
676.289	1.08138
676.479	0.79354
676.669	0.55812
676.859	1.21698
677.049	0.52719
677.238	0.7854
677.428	1.32718
677.618	0.97593
677.808	1.4352
677.997	0.72834
678.187	0.45177
678.377	0.75459
678.567	0.62166
678.756	0.58762
678.946	0.59893
679.136	0.50803
679.325	0.70178
679.515	0.51761
679.704	0.59448
679.894	1.20088
680.084	0.8138
680.273	0.90962
680.463	0.4605
680.652	0.3017
680.842	0.58313
681.031	1.08856
681.221	0.3472
681.41	1.02277
681.6	1.07793
681.789	0.68202
681.978	1.23333
682.168	0.89288
682.357	0.91387
682.547	0.86982
682.736	0.91946
682.925	0.79179
683.115	1.33017
683.304	1.09711
683.493	0.86695
683.682	0.82279
683.872	1.45111
684.061	1.16439
684.25	1.01042
684.439	1.56316
684.629	1.09092
684.818	1.80223
685.007	0.65734
685.196	0.81075
685.385	1.06874
685.574	1.30534
685.763	0.8659
685.952	0.7849
686.142	0.73408
686.331	1.2488
686.52	0.37982
686.709	1.48471
686.898	1.29211
687.087	1.04344
687.276	1.36431
687.465	0.98306
687.654	0.57488
687.842	1.50275
688.031	0.17987
688.22	1.01473
688.409	1.24314
688.598	0.99598
688.787	1.77885
688.976	0.90516
689.165	1.90334
689.353	0.76959
689.542	1.2269
689.731	1.42443
689.92	1.30399
690.108	1.27172
690.297	1.09088
690.486	0.77388
690.675	1.10523
690.863	1.60147
691.052	0.91627
691.241	0.68125
691.429	1.07827
691.618	1.29313
691.806	0.60608
691.995	0.84561
692.184	0.92535
692.372	0.35363
692.561	0.94642
692.749	0.91577
692.938	1.97028
693.126	0.93149
693.315	0.53548
693.503	1.30365
693.692	1.07391
693.88	1.28846
694.068	1.79147
694.257	0.58035
694.445	1.02555
694.634	0.18806
694.822	1.40238
695.01	1.62959
695.199	1.84988
695.387	1.19265
695.575	1.56425
695.763	1.22724
695.952	0.64369
696.14	0.69849
696.328	0.92159
696.516	0.71796
696.705	1.0201
696.893	1.14618
697.081	0.30942
697.269	1.17915
697.457	0.70134
697.645	0.69262
697.833	1.20947
698.021	0.508
698.21	0.87527
698.398	0.9848
698.586	0.47275
698.774	0.69531
698.962	0.60744
699.15	0.51597
699.338	0.54915
699.526	1.10514
699.714	0.81811
699.901	0.66658
700.089	1.1795
700.277	0.62405
700.465	1.00747
700.653	1.38197
700.841	0.80541
701.029	0.4518
701.217	1.55342
701.404	0.83118
701.592	1.43115
701.78	2.06077
701.968	1.24737
702.155	0.93806
702.343	0.53364
702.531	1.53735
702.718	0.86229
702.906	1.00433
703.094	0.68077
703.281	1.33438
703.469	1.18964
703.657	0.96107
703.844	1.70597
704.032	1.69627
704.219	0.82714
704.407	1.22517
704.595	1.77711
704.782	0.93888
704.97	0.50751
705.157	0.72857
705.345	1.68262
705.532	2.20897
705.719	1.17096
705.907	1.67706
706.094	1.11157
706.282	1.91387
706.469	1.01097
706.656	1.50066
706.844	0.42929
707.031	1.42749
707.218	0.87111
707.406	1.32948
707.593	1.33623
707.78	1.78352
707.968	1.08414
708.155	0.74927
708.342	1.37912
708.529	1.45126
708.716	0.90639
708.904	1.4442
709.091	1.48065
709.278	1.25677
709.465	1.79518
709.652	2.20292
709.839	1.20496
710.026	0.84727
710.213	0.53632
710.4	1.35784
710.587	0.88476
710.774	2.12836
710.961	2.02423
711.148	1.2409
711.335	1.36305
711.522	1.57345
711.709	1.25974
711.896	2.13392
712.083	1.5497
712.27	1.22295
712.457	1.63297
712.644	1.03915
712.831	2.42147
713.017	1.35271
713.204	1.34014
713.391	0.98557
713.578	1.79134
713.765	1.62436
713.951	1.48957
714.138	2.86921
714.325	1.73784
714.512	1.35833
714.698	1.16593
714.885	1.37085
715.072	1.3192
715.258	1.83823
715.445	1.00182
715.631	1.62104
715.818	0.26888
716.005	1.0483
716.191	1.42182
716.378	1.28989
716.564	1.412
716.751	1.2588
716.937	1.04402
717.124	1.94779
717.31	1.0136
717.497	2.13405
717.683	1.02386
717.869	2.40005
718.056	0.79625
718.242	1.52788
718.429	1.1153
718.615	1.03421
718.801	1.3799
718.988	1.81755
719.174	1.38801
719.36	1.4356
719.547	2.30021
719.733	2.06153
719.919	1.32001
720.105	1.58308
720.291	1.10682
720.478	1.72437
720.664	1.52358
720.85	1.82929
721.036	2.11138
721.222	1.72249
721.408	0.27721
721.595	2.10584
721.781	2.11401
721.967	2.33424
722.153	2.12395
722.339	1.09616
722.525	1.4986
722.711	1.88201
722.897	1.07728
723.083	1.15883
723.269	2.2688
723.455	2.96775
723.641	4.11206
723.827	2.39054
724.012	1.2491
724.198	0.93067
724.384	2.06883
724.57	1.15918
724.756	0.72218
724.942	0.82319
725.127	2.46453
725.313	2.88449
725.499	1.73094
725.685	2.42882
725.87	1.72695
726.056	1.16202
726.242	1.83249
726.428	0.77269
726.613	2.41798
726.799	1.75827
726.985	0.80722
727.17	1.69549
727.356	2.96557
727.541	1.3726
727.727	1.71116
727.913	1.99388
728.098	1.10127
728.284	1.89336
728.469	1.35247
728.655	1.33803
728.84	2.05441
729.026	1.88145
729.211	1.73723
729.397	1.08703
729.582	2.20506
729.767	1.52374
729.953	1.58396
730.138	2.59024
730.323	-0.01461
730.509	1.00649
730.694	2.31737
730.879	1.61405
731.065	1.92789
731.25	2.50905
731.435	2.00904
731.621	0.79616
731.806	1.00928
731.991	1.58633
732.176	0.64409
732.361	2.22737
732.547	1.82547
732.732	0.873
732.917	3.08236
733.102	1.06613
733.287	0.84415
733.472	1.51065
733.657	1.72724
733.842	0.72841
734.027	1.20995
734.212	2.01695
734.397	0.55241
734.582	1.55874
734.767	2.89705
734.952	2.58451
735.137	0.29879
735.322	2.40798
735.507	2.37797
735.692	1.91229
735.877	2.85181
736.062	1.7512
736.247	2.08292
736.431	1.80626
736.616	2.53851
736.801	2.35585
736.986	1.54483
737.171	0.52737
737.355	1.30211
737.54	2.61043
737.725	2.00187
737.909	2.92495
738.094	1.43362
738.279	2.14807
738.463	1.30893
738.648	1.81884
738.833	2.19969
739.017	3.26767
739.202	1.66114
739.386	1.6622
739.571	1.12143
739.756	1.74923
739.94	1.9744
740.125	3.14007
740.309	1.51784
740.494	2.05321
740.678	1.61166
740.863	2.38857
741.047	1.9197
741.231	2.43132
741.416	1.72043
741.6	1.66185
741.785	2.70591
741.969	1.94353
742.153	3.3771
742.338	0.57359
742.522	2.28454
742.706	2.49192
742.89	0.69419
743.075	1.51943
743.259	3.57622
743.443	2.70623
743.627	1.78838
743.812	2.61128
743.996	1.29243
744.18	1.80952
744.364	1.16511
744.548	2.67516
744.732	1.49995
744.916	1.80349
745.1	2.61348
745.285	1.2186
745.469	1.87682
745.653	4.19729
745.837	1.90292
746.021	3.24348
746.205	2.81062
746.389	3.14985
746.573	1.57068
746.757	1.47382
746.94	0.92006
747.124	2.52391
747.308	1.05211
747.492	2.59424
747.676	1.33028
747.86	3.40777
748.044	1.68546
748.227	0.58003
748.411	3.59834
748.595	1.72073
748.779	0.79831
748.963	2.56983
749.146	0.95861
749.33	0.3988
749.514	2.30604
749.697	2.3273
749.881	1.672
750.065	2.11397
750.248	1.70753
750.432	3.83995
750.616	2.7382
750.799	1.11545
750.983	3.1483
751.166	2.94209
751.35	0.76755
751.533	2.21831
751.717	3.02189
751.9	2.99103
752.084	1.83383
752.267	1.3187
752.451	1.90208
752.634	0.83595
752.818	2.51315
753.001	3.19718
753.184	2.62707
753.368	1.60124
753.551	0.32319
753.734	1.67442
753.918	3.77538
754.101	2.54424
754.284	2.47519
754.467	1.2595
754.651	1.61081
754.834	1.04804
755.017	2.56842
755.2	2.54874
755.384	1.12864
755.567	1.84465
755.75	2.10662
755.933	1.73571
756.116	1.9555
756.299	2.18939
756.482	0.80562
756.665	2.38737
756.848	2.52306
757.032	2.59039
757.215	0.45514
757.398	0.5793
757.581	0.97128
757.764	3.45702
757.947	2.57574
758.129	2.712
758.312	0.99082
758.495	1.8019
758.678	1.35655
758.861	2.7567
759.044	3.21887
759.227	0.98651
759.41	1.31651
759.592	2.72951
759.775	1.77187
759.958	2.57825
760.141	1.12516
760.324	2.85976
760.506	3.00421
760.689	2.91942
760.872	3.62363
761.054	2.76447
761.237	1.44202
761.42	2.17241
761.602	3.3388
761.785	2.01903
761.968	2.10368
762.15	2.4579
762.333	1.83687
762.515	2.53297
762.698	1.11952
762.88	2.13425
763.063	2.58424
763.245	2.46683
763.428	1.54575
763.61	1.76768
763.793	0.89689
763.975	2.44274
764.158	1.90061
764.34	1.13649
764.522	1.40434
764.705	1.8903
764.887	3.11925
765.069	0.80808
765.252	2.57244
765.434	2.92286
765.616	2.45122
765.799	1.54686
765.981	2.77899
766.163	1.12175
766.345	2.95012
766.528	1.12668
766.71	0.47404
766.892	1.86184
767.074	3.32633
767.256	1.48223
767.438	2.75719
767.62	2.19835
767.802	4.56081
767.985	2.72551
768.167	4.81806
768.349	1.64324
768.531	1.8683
768.713	2.36374
768.895	2.93959
769.077	2.95608
769.259	3.66444
769.441	5.70353
769.623	2.46225
769.804	2.63627
769.986	5.1569
770.168	4.3547
770.35	4.76029
770.532	3.62486
770.714	3.36485
770.896	4.70883
771.077	0.57691
771.259	3.96607
771.441	4.37434
771.623	3.98057
771.804	6.22296
771.986	0.83856
772.168	2.02746
772.35	2.72689
772.531	7.18091
772.713	2.03335
772.894	5.0133
773.076	1.87571
773.258	3.52729
773.439	3.37966
773.621	5.26263
773.802	1.22553
773.984	2.4204
774.166	4.67886
774.347	4.19957
774.529	3.22564
774.71	0.38075
774.891	2.36853
775.073	2.67362
775.254	5.22311
775.436	2.73105
775.617	6.10543
775.799	3.58909
775.98	4.74489
776.161	3.55115
776.343	5.52248
776.524	2.24644
776.705	2.67857
776.886	1.40639
777.068	2.35536
777.249	8.83237
777.43	5.94322
777.611	2.28915
777.793	2.87948
777.974	3.50342
778.155	4.13195
778.336	2.73932
778.517	5.58168
778.698	3.36485
778.879	1.04188
779.061	0.18504
779.242	4.01063
779.423	3.27199
779.604	2.74872
779.785	3.25017
779.966	3.58247
780.147	3.35078
780.328	4.22284
780.509	5.75169
780.69	5.31736
780.871	2.29188
781.051	1.50288
781.232	4.15459
781.413	5.06844
781.594	3.40596
781.775	3.43478
781.956	2.55639
782.137	0.72158
782.317	1.30023
782.498	3.80397
782.679	3.38894
782.86	2.16914
783.04	2.96476
783.221	4.03477
783.402	5.23893
783.583	3.09387
783.763	5.35073
783.944	2.38193
784.124	2.27225
784.305	4.01809
784.486	3.84149
784.666	1.41401
784.847	1.45622
785.027	8.74246
785.208	0.59397
785.388	3.28984
785.569	3.56
785.749	3.07346
785.93	4.18811
786.11	1.70904
786.291	3.2326
786.471	5.03018
786.652	5.09986
786.832	3.61043
787.012	4.01321
787.193	1.85219
787.373	2.30396
787.553	2.53818
787.734	3.14726
787.914	3.66327
788.094	5.3491
788.275	3.0094
788.455	3.18068
788.635	1.59875
788.815	3.30832
788.995	2.5619
789.176	1.54612
789.356	2.26721
789.536	2.23877
789.716	3.37662
789.896	2.61134
790.076	2.00022
790.256	3.17956
790.436	0.89886
790.616	1.75481
790.796	4.64834
790.976	2.33797
791.156	3.06038
791.336	2.90588
791.516	3.8707
791.696	4.04607
791.876	1.35336
792.056	2.99579
792.236	4.17095
792.416	4.3086
792.596	2.02417
792.776	3.16851
792.956	3.78251
793.135	5.43473
793.315	1.66137
793.495	6.00223
793.675	4.39346
793.854	4.15868
794.034	3.80893
794.214	1.76337
794.394	4.05836
794.573	5.13181
794.753	3.06933
794.933	1.89437
795.112	2.63403
795.292	3.50966
795.472	5.87405
795.651	2.31923
795.831	2.46016
796.01	2.54375
796.19	2.39815
796.369	3.57184
796.549	3.2531
796.728	3.13485
796.908	3.09587
797.087	2.7113
797.267	3.99377
797.446	2.54104
797.626	3.07602
797.805	3.06026
797.984	3.32513
798.164	3.72723
798.343	2.49288
798.522	3.53845
798.702	2.03719
798.881	2.29042
799.06	2.78325
799.239	0.50993
799.419	2.49041
799.598	5.1128
799.777	1.82643
799.956	4.18892
800.136	2.84396
800.315	3.05664
800.494	2.54096
800.673	4.66906
800.852	5.13322
801.031	5.81229
801.21	4.91585
801.389	2.99822
801.568	3.81279
801.747	5.96559
801.926	2.34759
802.105	3.6208
802.284	3.7239
802.463	4.44861
802.642	2.00167
802.821	2.1388
803	5.27644
803.179	2.74908
803.358	3.53598
803.537	2.78834
803.716	3.40281
803.895	0.9655
804.073	3.49951
804.252	1.88931
804.431	3.28838
804.61	4.17523
804.789	4.92485
804.967	1.86957
805.146	2.17966
805.325	6.96876
805.503	3.38414
805.682	0.77697
805.861	8.12949
806.039	4.70985
806.218	2.07526
806.397	3.05037
806.575	2.93543
806.754	2.94959
806.932	1.8776
807.111	4.87382
807.289	5.6872
807.468	3.67565
807.646	3.33379
807.825	3.46318
808.003	4.94902
808.182	2.81696
808.36	3.63274
808.539	3.30934
808.717	5.16374
808.895	0.90157
809.074	3.8421
809.252	1.89912
809.43	4.01723
809.609	5.57413
809.787	4.89193
809.965	3.08854
810.144	2.00973
810.322	3.55867
810.5	2.41684
810.678	2.67884
810.856	5.51702
811.035	3.85764
811.213	2.76019
811.391	4.29845
811.569	2.42621
811.747	8.61811
811.925	2.54789
812.103	2.84715
812.281	0.87494
812.459	7.27906
812.637	6.59075
812.816	4.05642
812.994	6.58562
813.171	4.68351
813.349	4.49407
813.527	3.99039
813.705	5.97186
813.883	5.03431
814.061	3.14847
814.239	6.99177
814.417	5.60672
814.595	4.73749
814.773	4.03898
814.95	5.79723
815.128	3.6772
815.306	2.28956
815.484	0.63423
815.662	2.62917
815.839	2.62349
816.017	3.51371
816.195	4.40162
816.372	3.32576
816.55	6.48117
816.728	4.40572
816.905	2.50889
817.083	5.2663
817.261	4.38258
817.438	8.98804
817.616	6.38834
817.793	3.59733
817.971	4.2202
818.148	1.85121
818.326	5.62918
818.503	4.79535
818.681	7.26537
818.858	3.30055
819.036	3.05142
819.213	3.69013
819.391	2.58966
819.568	1.84524
819.745	2.8365
819.923	4.37233
820.1	4.07891
820.277	2.82477
820.455	1.93115
820.632	2.10557
820.809	3.93971
820.986	2.76125
821.164	1.4016
821.341	1.31737
821.518	2.24969
821.695	1.31588
821.872	1.24238
822.05	0.95729
822.227	0.76705
822.404	0.7364
822.581	1.19333
822.758	0.99795
822.935	1.07591
823.112	1.3522
823.289	0.84461
823.466	1.34014
823.643	1.10606
823.82	1.56724
823.997	0.93492
824.174	1.45375
824.351	2.3008
824.528	1.9091
824.705	1.78466
824.882	2.16008
825.059	2.25018
825.236	1.82325
825.412	1.0436
825.589	2.29634
825.766	3.72905
825.943	1.42848
826.12	2.61811
826.296	1.39729
826.473	1.66937
826.65	1.2801
826.827	2.78358
827.003	1.64852
827.18	1.89674
827.357	2.62123
827.533	1.42922
827.71	0.89175
827.887	1.6091
828.063	1.55439
828.24	1.19106
828.416	1.65952
828.593	1.30416
828.769	2.91264
828.946	2.58811
829.122	2.33037
829.299	3.34207
829.475	1.20806
829.652	2.95712
829.828	5.23657
830.005	4.01777
830.181	4.09927
830.357	3.21716
830.534	3.15266
830.71	3.60609
830.886	5.2168
831.063	3.05055
831.239	5.26319
831.415	2.45578
831.592	4.95775
831.768	2.72189
831.944	1.44032
832.12	5.46155
832.296	4.58069
832.473	4.02023
832.649	3.80772
832.825	5.16522
833.001	2.07979
833.177	3.87614
833.353	3.34183
833.529	1.33381
833.705	3.19624
833.881	2.04524
834.058	1.38564
834.234	2.04204
834.41	2.18557
834.586	1.2049
834.761	1.8235
834.937	2.08447
835.113	2.39936
835.289	2.21407
835.465	2.71202
835.641	2.25183
835.817	3.46042
835.993	4.01916
836.169	2.26356
836.344	2.81078
836.52	3.33366
836.696	4.22471
836.872	2.49371
837.048	9.22432
837.223	2.17905
837.399	4.16631
837.575	2.88762
837.75	4.08068
837.926	6.40335
838.102	9.11081
838.277	7.37991
838.453	10.25182
838.628	11.78853
838.804	7.49415
838.98	4.72719
839.155	2.74125
839.331	6.45516
839.506	4.5889
839.682	3.10178
839.857	5.82423
840.033	7.88645
840.208	4.63632
840.384	1.52614
840.559	2.5164
840.734	4.54388
840.91	10.92965
841.085	4.31892
841.26	3.62847
841.436	4.37219
841.611	3.76353
841.786	5.22121
841.962	9.40538
842.137	7.17947
842.312	7.47549
842.487	3.25278
842.663	3.82114
842.838	3.57809
843.013	14.79925
843.188	8.69968
843.363	2.13475
843.538	9.37916
843.714	10.0812
843.889	12.80185
844.064	12.80986
844.239	9.17792
844.414	11.18287
844.589	9.35928
844.764	14.46896
844.939	12.93981
845.114	11.18967
845.289	19.34753
845.464	22.60822
845.639	14.31507
845.814	7.12549
845.989	9.86067
846.163	10.97869
846.338	17.62404
846.513	9.66981
846.688	8.41132
846.863	9.6692
847.038	6.52644
847.212	6.93644
847.387	4.9882
847.562	9.47938
847.737	16.37247
847.911	4.71413
848.086	5.84603
848.261	11.82216
848.435	8.33917
848.61	12.76732
848.785	7.78766
848.959	8.32282
849.134	19.48535
849.308	18.07301
849.483	9.75324
849.658	13.50823
849.832	14.30517
850.007	3.55303
850.181	23.19341
850.356	7.93963
850.53	19.50931
850.705	5.17696
850.879	7.05794
851.053	8.61559
851.228	10.03212
851.402	5.35535
851.577	14.74496
851.751	18.73763
851.925	8.22908
852.099	5.54576
852.274	10.53124
852.448	4.44
852.622	15.91788
852.797	9.82244
852.971	10.14649
853.145	11.0436
853.319	29.92242
853.493	18.75243
853.668	7.38978
853.842	20.39188
854.016	10.37909
854.19	9.07238
854.364	14.64966
854.538	14.58805
854.712	12.20335
854.886	6.82602
855.06	6.15334
855.234	7.60548
855.408	14.14351
855.582	13.28806
855.756	16.53027
855.93	16.55201
856.104	5.86402
856.278	9.20843
856.452	7.66303
856.626	13.51534
856.8	21.42598
856.973	10.50353
857.147	10.54157
857.321	10.28825
857.495	10.71185
857.669	8.24422
857.842	10.73084
858.016	14.01707
858.19	5.33793
858.364	27.10642
858.537	10.82472
858.711	9.38689
858.885	7.45206
859.058	2.66836
859.232	2.77385
859.405	0.91655
859.579	14.54794
859.753	17.05654
859.926	8.73854
860.1	5.29639
860.273	9.99579
860.447	15.01718
860.62	6.80131
860.794	16.13752
860.967	12.51132
861.141	15.02771
861.314	22.99232
861.487	13.73022
861.661	15.11736
861.834	13.93783
862.008	16.12844
862.181	13.36676
862.354	16.1058
862.528	15.75157
862.701	11.15513
862.874	4.69009
863.047	13.15979
863.221	8.09012
863.394	2.41236
863.567	18.37084
863.74	5.73081
863.913	11.08276
864.087	9.76167
864.26	9.95767
864.433	9.28278
864.606	14.45678
864.779	8.38432
864.952	6.32238
865.125	9.71851
865.298	7.66664
865.471	13.3147
865.644	23.06479
865.817	14.07696
865.99	10.98629
866.163	16.08735
866.336	4.93786
866.509	11.25993
866.682	8.58862
866.855	13.23737
867.028	4.74979
867.2	13.20199
867.373	2.67502
867.546	9.39362
867.719	24.29928
867.892	15.20633
868.064	6.01028
868.237	16.21718
868.41	1.44435
868.583	4.6689
868.755	6.92731
868.928	12.49921
869.101	21.96421
869.273	14.77558
869.446	14.37585
869.619	13.88664
869.791	8.94159
869.964	12.74486
870.136	11.33748
870.309	9.4081
870.481	8.43862
870.654	3.93453
870.826	10.53452
870.999	7.11726
871.171	11.52212
871.344	10.4441
871.516	13.33058
871.689	7.24658
871.861	10.99799
872.033	6.47276
872.206	2.85261
872.378	13.87946
872.55	8.99085
872.723	8.33885
872.895	7.51421
873.067	14.8294
873.24	17.10978
873.412	8.47725
873.584	4.95215
873.756	9.71649
873.928	6.74652
874.101	11.23416
874.273	11.03558
874.445	4.92437
874.617	8.13574
874.789	10.92624
874.961	5.34262
875.133	8.22624
875.305	8.87227
875.477	9.29028
875.649	3.71226
875.821	10.7847
875.993	20.06875
876.165	8.2903
876.337	10.09869
876.509	7.25744
876.681	5.86579
876.853	8.27222
877.025	13.52361
877.197	1.43938
877.369	3.67761
877.541	14.99911
877.712	4.57308
877.884	5.53478
878.056	10.58187
878.228	9.2569
878.4	9.5513
878.571	6.5301
878.743	3.14713
878.915	8.55729
879.086	4.30184
879.258	6.23447
879.43	7.07442
879.601	4.58335
879.773	6.78081
879.945	0.536
880.116	2.76619
880.288	2.09662
880.459	2.32252
880.631	0.75186
880.802	1.50461
880.974	1.30367
881.145	0.90846
881.317	1.27936
881.488	1.04871
881.66	0.95798
881.831	0.79158
882.002	1.72265
882.174	0.64087
882.345	1.56788
882.517	0.58014
882.688	1.81832
882.859	1.5369
883.03	3.35
883.202	2.417
883.373	1.64375
883.544	2.60802
883.715	4.13806
883.887	2.08417
884.058	1.99671
884.229	3.14812
884.4	3.52682
884.571	3.42693
884.742	2.75616
884.914	2.21668
885.085	5.02137
885.256	7.47613
885.427	5.43809
885.598	7.69629
885.769	9.01265
885.94	4.30841
886.111	1.12358
886.282	7.46867
886.453	5.68885
886.624	3.63641
886.795	7.96336
886.966	3.55802
887.136	6.601
887.307	6.37412
887.478	15.23422
887.649	6.7234
887.82	12.00902
887.991	6.72325
888.161	9.09439
888.332	11.09697
888.503	9.4375
888.674	10.08245
888.844	17.4069
889.015	10.30412
889.186	2.90486
889.356	12.19453
889.527	2.58296
889.698	25.43371
889.868	6.94924
890.039	14.47469
890.209	9.61846
890.38	10.81856
890.551	16.04156
890.721	10.60236
890.892	12.41383
891.062	4.12481
891.233	10.43742
891.403	8.93122
891.574	4.73509
891.744	8.8758
891.914	6.63422
892.085	10.50144
892.255	-1.49283
892.425	13.76673
892.596	12.9916
892.766	11.68424
892.936	13.49204
893.107	9.26136
893.277	3.51052
893.447	4.951
893.618	2.97166
893.788	6.99482
893.958	4.57594
894.128	5.60321
894.298	2.58218
894.468	5.32836
894.639	3.13184
894.809	1.64467
894.979	3.30396
895.149	4.45419
895.319	3.11726
895.489	5.22241
895.659	5.62385
895.829	2.94865
895.999	3.34137
896.169	1.91538
896.339	4.5777
896.509	10.54813
896.679	10.03691
896.849	10.10812
897.019	13.402
897.189	9.23258
897.358	9.70345
897.528	10.58863
897.698	2.51996
897.868	8.26499
898.038	20.72062
898.208	13.60996
898.377	6.69747
898.547	19.97697
898.717	20.47211
898.886	8.75383
899.056	14.79611
899.226	26.64991
899.395	12.49959
899.565	19.59251
899.735	10.33039
899.904	16.27237
900.074	18.21492
900.244	3.76542
900.413	31.58989
900.583	6.45685
900.752	8.24567
900.922	23.91385
901.091	-2.09987
901.261	19.76718
901.43	13.71338
901.599	11.61746
901.769	31.8633
901.938	18.66569
902.108	15.94051
902.277	19.49382
902.446	4.70662
902.616	9.33899
902.785	7.84808
902.954	18.76195
903.124	13.44964
903.293	8.23422
903.462	4.30373
903.631	5.4117
903.801	6.34105
903.97	2.61134
904.139	3.51872
904.308	3.88999
904.477	2.91306
904.646	0.54375
904.816	2.14219
904.985	4.48562
905.154	6.63541
